PE UV       SUBTECH     SPECTRUM    ASCII       PEDS        4.00        
   -1
03.Sample.Raw.asc
24/04/18
16:09:14.00
24/04/18
16:09:14.00
Stefan Simis
promaster_csiro
175.000000
1
Lambda 1050
1050L1807051
PerkinElmer UV WinLab 6.4.0.973 / 2.02.06 Lambda 900 UV/VIS/NIR, Jan 28 2016 16:58:34

0
0
3350/servo 860.8/2
0
0
UV/VIS
1
1
1
RBeamAtt,SBeamAtt,150mm sphere / downward view, WB InGaAs Detector
0
0
0
0
Program
Program
3350/servo 860.8/2
3350/0.08 860.8/0.08
3350/0.08 860.8/0.08
0
1.00
 
 
 
0
 
860.8
319.2
860.8
Front
100
 
S:100 R:100
 
0
0
0
 
0
 
 
 
0
 
 
0
0
0
0
0
 
 
 
 
0
0


0
0
#HDR
-1
-1
#GR
nm
A
1.0
0.0
2500.000000
-1.000000
2326
8
10.000000
-0.027257
#DATA
2500.000000	10.000000
2499.000000	10.000000
2498.000000	0.578880
2497.000000	0.733289
2496.000000	10.000000
2495.000000	0.606880
2494.000000	10.000000
2493.000000	10.000000
2492.000000	1.648404
2491.000000	10.000000
2490.000000	1.445102
2489.000000	1.228460
2488.000000	10.000000
2487.000000	1.974482
2486.000000	10.000000
2485.000000	10.000000
2484.000000	0.978984
2483.000000	1.235801
2482.000000	0.781135
2481.000000	0.376035
2480.000000	10.000000
2479.000000	10.000000
2478.000000	10.000000
2477.000000	10.000000
2476.000000	1.039030
2475.000000	0.989621
2474.000000	10.000000
2473.000000	1.083286
2472.000000	10.000000
2471.000000	10.000000
2470.000000	0.964739
2469.000000	10.000000
2468.000000	1.403135
2467.000000	1.442139
2466.000000	1.041557
2465.000000	0.718699
2464.000000	0.959886
2463.000000	1.326635
2462.000000	1.040931
2461.000000	1.969557
2460.000000	1.295336
2459.000000	0.818017
2458.000000	0.868997
2457.000000	0.925286
2456.000000	0.750404
2455.000000	0.817383
2454.000000	0.792200
2453.000000	1.057277
2452.000000	1.433383
2451.000000	0.817909
2450.000000	0.853007
2449.000000	1.184479
2448.000000	0.871183
2447.000000	1.035316
2446.000000	1.226255
2445.000000	1.172696
2444.000000	2.085225
2443.000000	1.047863
2442.000000	0.890086
2441.000000	1.027003
2440.000000	0.925879
2439.000000	1.051336
2438.000000	1.275666
2437.000000	1.043820
2436.000000	1.085687
2435.000000	0.940225
2434.000000	0.780123
2433.000000	0.839674
2432.000000	0.871801
2431.000000	0.864808
2430.000000	1.098290
2429.000000	0.950834
2428.000000	1.005425
2427.000000	0.957920
2426.000000	0.852786
2425.000000	0.862077
2424.000000	1.004050
2423.000000	0.923956
2422.000000	1.058067
2421.000000	1.115250
2420.000000	0.985170
2419.000000	0.999782
2418.000000	0.935561
2417.000000	0.858375
2416.000000	0.972498
2415.000000	1.011634
2414.000000	1.195690
2413.000000	1.182211
2412.000000	0.969995
2411.000000	0.988311
2410.000000	0.984129
2409.000000	0.879377
2408.000000	0.951575
2407.000000	0.939308
2406.000000	0.988754
2405.000000	1.302193
2404.000000	1.181096
2403.000000	1.008662
2402.000000	1.012776
2401.000000	0.897857
2400.000000	0.929993
2399.000000	0.933551
2398.000000	0.955395
2397.000000	1.058634
2396.000000	0.982414
2395.000000	0.860375
2394.000000	0.899895
2393.000000	0.884277
2392.000000	0.894552
2391.000000	0.937223
2390.000000	0.929829
2389.000000	1.021978
2388.000000	0.998553
2387.000000	0.883849
2386.000000	0.950312
2385.000000	0.917059
2384.000000	0.868964
2383.000000	0.973554
2382.000000	0.972856
2381.000000	1.070137
2380.000000	1.134141
2379.000000	0.881631
2378.000000	0.868168
2377.000000	0.924064
2376.000000	0.809466
2375.000000	0.880187
2374.000000	1.028709
2373.000000	1.032963
2372.000000	1.091306
2371.000000	0.938460
2370.000000	0.848462
2369.000000	0.903887
2368.000000	0.857791
2367.000000	0.909003
2366.000000	1.006022
2365.000000	0.930925
2364.000000	1.000584
2363.000000	0.975305
2362.000000	0.851821
2361.000000	0.890614
2360.000000	0.897990
2359.000000	0.880412
2358.000000	1.017000
2357.000000	1.031372
2356.000000	0.991368
2355.000000	0.926239
2354.000000	0.813185
2353.000000	0.870560
2352.000000	0.899452
2351.000000	0.918407
2350.000000	1.009671
2349.000000	1.034958
2348.000000	1.058134
2347.000000	1.093216
2346.000000	0.939529
2345.000000	0.883071
2344.000000	0.893882
2343.000000	0.846321
2342.000000	0.894455
2341.000000	0.940169
2340.000000	0.926772
2339.000000	1.010535
2338.000000	0.900428
2337.000000	0.844250
2336.000000	0.896652
2335.000000	0.803024
2334.000000	0.828027
2333.000000	0.987919
2332.000000	1.013332
2331.000000	0.958804
2330.000000	0.945218
2329.000000	0.842093
2328.000000	0.870832
2327.000000	0.929174
2326.000000	0.955504
2325.000000	1.033988
2324.000000	0.988662
2323.000000	0.944595
2322.000000	0.925401
2321.000000	0.877656
2320.000000	0.868530
2319.000000	0.948200
2318.000000	0.900054
2317.000000	0.943364
2316.000000	0.999747
2315.000000	0.930867
2314.000000	0.940457
2313.000000	0.951563
2312.000000	0.908650
2311.000000	0.928761
2310.000000	0.921867
2309.000000	0.980474
2308.000000	1.070413
2307.000000	0.944912
2306.000000	0.920259
2305.000000	0.888118
2304.000000	0.839382
2303.000000	0.847043
2302.000000	0.897582
2301.000000	0.884777
2300.000000	0.992296
2299.000000	0.935608
2298.000000	0.894956
2297.000000	0.962457
2296.000000	0.916255
2295.000000	0.893951
2294.000000	0.943295
2293.000000	0.917676
2292.000000	0.934980
2291.000000	1.005840
2290.000000	0.856725
2289.000000	0.886451
2288.000000	0.926868
2287.000000	0.883379
2286.000000	0.952337
2285.000000	0.976371
2284.000000	0.924283
2283.000000	0.957135
2282.000000	0.911992
2281.000000	0.881991
2280.000000	0.947217
2279.000000	0.927865
2278.000000	0.931903
2277.000000	1.018605
2276.000000	0.914422
2275.000000	0.956965
2274.000000	0.967005
2273.000000	0.877712
2272.000000	0.914690
2271.000000	0.958299
2270.000000	0.880296
2269.000000	0.980392
2268.000000	0.973160
2267.000000	0.923815
2266.000000	0.985877
2265.000000	0.931929
2264.000000	0.918491
2263.000000	0.914337
2262.000000	0.883681
2261.000000	0.916514
2260.000000	0.969810
2259.000000	0.940575
2258.000000	0.920918
2257.000000	0.898910
2256.000000	0.865303
2255.000000	0.881637
2254.000000	0.921024
2253.000000	0.863666
2252.000000	0.959287
2251.000000	0.938931
2250.000000	0.892954
2249.000000	0.935018
2248.000000	0.877690
2247.000000	0.879212
2246.000000	0.894625
2245.000000	0.887580
2244.000000	0.915502
2243.000000	0.978606
2242.000000	0.908709
2241.000000	0.913697
2240.000000	0.867703
2239.000000	0.873457
2238.000000	0.906192
2237.000000	0.918948
2236.000000	0.893914
2235.000000	0.980100
2234.000000	0.938913
2233.000000	0.914598
2232.000000	0.919931
2231.000000	0.897763
2230.000000	0.926282
2229.000000	0.930992
2228.000000	0.906607
2227.000000	0.981307
2226.000000	0.969090
2225.000000	0.884765
2224.000000	0.903723
2223.000000	0.906860
2222.000000	0.871412
2221.000000	0.873362
2220.000000	0.909534
2219.000000	0.932607
2218.000000	0.960254
2217.000000	0.880944
2216.000000	0.900537
2215.000000	0.937919
2214.000000	0.859373
2213.000000	0.924659
2212.000000	0.966241
2211.000000	0.937703
2210.000000	0.969140
2209.000000	0.925580
2208.000000	0.883065
2207.000000	0.914056
2206.000000	0.889088
2205.000000	0.878662
2204.000000	0.908693
2203.000000	0.903602
2202.000000	0.920583
2201.000000	0.929883
2200.000000	0.893528
2199.000000	0.933267
2198.000000	0.910330
2197.000000	0.872340
2196.000000	0.904815
2195.000000	0.944005
2194.000000	0.919564
2193.000000	0.932022
2192.000000	0.908606
2191.000000	0.922115
2190.000000	0.942015
2189.000000	0.902554
2188.000000	0.915135
2187.000000	0.967161
2186.000000	0.932024
2185.000000	0.938574
2184.000000	0.916033
2183.000000	0.887877
2182.000000	0.902216
2181.000000	0.931125
2180.000000	0.901846
2179.000000	0.930568
2178.000000	0.948646
2177.000000	0.925624
2176.000000	0.949356
2175.000000	0.902783
2174.000000	0.885969
2173.000000	0.895268
2172.000000	0.898906
2171.000000	0.930201
2170.000000	0.962942
2169.000000	0.934299
2168.000000	0.916550
2167.000000	0.893935
2166.000000	0.884427
2165.000000	0.902305
2164.000000	0.905880
2163.000000	0.935315
2162.000000	0.951644
2161.000000	0.919639
2160.000000	0.925181
2159.000000	0.896405
2158.000000	0.861643
2157.000000	0.883590
2156.000000	0.884540
2155.000000	0.892823
2154.000000	0.952955
2153.000000	0.936504
2152.000000	0.908403
2151.000000	0.925848
2150.000000	0.900458
2149.000000	0.884165
2148.000000	0.914510
2147.000000	0.908641
2146.000000	0.936289
2145.000000	0.952560
2144.000000	0.914418
2143.000000	0.902963
2142.000000	0.876940
2141.000000	0.886616
2140.000000	0.920194
2139.000000	0.903149
2138.000000	0.917975
2137.000000	0.964049
2136.000000	0.927540
2135.000000	0.901718
2134.000000	0.923345
2133.000000	0.916164
2132.000000	0.912789
2131.000000	0.898672
2130.000000	0.910286
2129.000000	0.953732
2128.000000	0.940852
2127.000000	0.941990
2126.000000	0.951355
2125.000000	0.889401
2124.000000	0.899070
2123.000000	0.940370
2122.000000	0.913683
2121.000000	0.930717
2120.000000	0.955279
2119.000000	0.912795
2118.000000	0.906493
2117.000000	0.895158
2116.000000	0.885293
2115.000000	0.907349
2114.000000	0.917329
2113.000000	0.948032
2112.000000	0.972091
2111.000000	0.937963
2110.000000	0.943483
2109.000000	0.938358
2108.000000	0.908237
2107.000000	0.929380
2106.000000	0.942963
2105.000000	0.939541
2104.000000	0.954726
2103.000000	0.937688
2102.000000	0.933453
2101.000000	0.930968
2100.000000	0.903151
2099.000000	0.923870
2098.000000	0.946848
2097.000000	0.942457
2096.000000	0.966279
2095.000000	0.963086
2094.000000	0.924323
2093.000000	0.934802
2092.000000	0.919505
2091.000000	0.909267
2090.000000	0.921773
2089.000000	0.915053
2088.000000	0.933805
2087.000000	0.929261
2086.000000	0.883899
2085.000000	0.915525
2084.000000	0.911777
2083.000000	0.920447
2082.000000	0.935179
2081.000000	0.929138
2080.000000	0.922678
2079.000000	0.948629
2078.000000	0.930626
2077.000000	0.924235
2076.000000	0.905260
2075.000000	0.889430
2074.000000	0.911170
2073.000000	0.922196
2072.000000	0.913764
2071.000000	0.949799
2070.000000	0.929756
2069.000000	0.916783
2068.000000	0.906812
2067.000000	0.888022
2066.000000	0.896216
2065.000000	0.917958
2064.000000	0.945004
2063.000000	0.941742
2062.000000	0.938940
2061.000000	0.911622
2060.000000	0.923221
2059.000000	0.912532
2058.000000	0.901490
2057.000000	0.940240
2056.000000	0.928163
2055.000000	0.920172
2054.000000	0.928240
2053.000000	0.919026
2052.000000	0.919274
2051.000000	0.906273
2050.000000	0.899088
2049.000000	0.916671
2048.000000	0.913659
2047.000000	0.921716
2046.000000	0.953889
2045.000000	0.921438
2044.000000	0.918466
2043.000000	0.913842
2042.000000	0.902788
2041.000000	0.919293
2040.000000	0.931626
2039.000000	0.918018
2038.000000	0.940578
2037.000000	0.930526
2036.000000	0.924694
2035.000000	0.926267
2034.000000	0.902518
2033.000000	0.910878
2032.000000	0.911004
2031.000000	0.906547
2030.000000	0.933716
2029.000000	0.926354
2028.000000	0.922829
2027.000000	0.921311
2026.000000	0.917392
2025.000000	0.901577
2024.000000	0.916611
2023.000000	0.909950
2022.000000	0.928911
2021.000000	0.936004
2020.000000	0.921820
2019.000000	0.913234
2018.000000	0.913250
2017.000000	0.897401
2016.000000	0.919084
2015.000000	0.921607
2014.000000	0.926350
2013.000000	0.931545
2012.000000	0.917052
2011.000000	0.920991
2010.000000	0.920807
2009.000000	0.916816
2008.000000	0.915415
2007.000000	0.910788
2006.000000	0.906376
2005.000000	0.930049
2004.000000	0.936492
2003.000000	0.920532
2002.000000	0.923412
2001.000000	0.906345
2000.000000	0.909467
1999.000000	0.914326
1998.000000	0.911968
1997.000000	0.929840
1996.000000	0.931586
1995.000000	0.923446
1994.000000	0.921599
1993.000000	0.918781
1992.000000	0.912644
1991.000000	0.932441
1990.000000	0.923617
1989.000000	0.930762
1988.000000	0.937803
1987.000000	0.928280
1986.000000	0.928954
1985.000000	0.922605
1984.000000	0.912269
1983.000000	0.926486
1982.000000	0.921625
1981.000000	0.916718
1980.000000	0.931050
1979.000000	0.933172
1978.000000	0.927653
1977.000000	0.930545
1976.000000	0.923074
1975.000000	0.927402
1974.000000	0.924600
1973.000000	0.927765
1972.000000	0.934997
1971.000000	0.934717
1970.000000	0.934870
1969.000000	0.932862
1968.000000	0.921715
1967.000000	0.923422
1966.000000	0.933210
1965.000000	0.928938
1964.000000	0.931528
1963.000000	0.936588
1962.000000	0.931601
1961.000000	0.943364
1960.000000	0.931299
1959.000000	0.923253
1958.000000	0.929257
1957.000000	0.927896
1956.000000	0.930899
1955.000000	0.946334
1954.000000	0.949120
1953.000000	0.943485
1952.000000	0.939370
1951.000000	0.925521
1950.000000	0.932241
1949.000000	0.932703
1948.000000	0.935368
1947.000000	0.942469
1946.000000	0.940107
1945.000000	0.951598
1944.000000	0.949594
1943.000000	0.932369
1942.000000	0.936286
1941.000000	0.941636
1940.000000	0.938317
1939.000000	0.943177
1938.000000	0.942938
1937.000000	0.959054
1936.000000	0.962005
1935.000000	0.939045
1934.000000	0.935557
1933.000000	0.937927
1932.000000	0.925480
1931.000000	0.940342
1930.000000	0.942101
1929.000000	0.938267
1928.000000	0.947389
1927.000000	0.936878
1926.000000	0.931912
1925.000000	0.928616
1924.000000	0.917269
1923.000000	0.934420
1922.000000	0.946223
1921.000000	0.958933
1920.000000	0.973772
1919.000000	0.952195
1918.000000	0.936881
1917.000000	0.940303
1916.000000	0.925840
1915.000000	0.932960
1914.000000	0.940191
1913.000000	0.938493
1912.000000	0.956425
1911.000000	0.949810
1910.000000	0.933212
1909.000000	0.936253
1908.000000	0.924867
1907.000000	0.926169
1906.000000	0.943662
1905.000000	0.948190
1904.000000	0.952978
1903.000000	0.947196
1902.000000	0.933246
1901.000000	0.927673
1900.000000	0.925756
1899.000000	0.931098
1898.000000	0.939528
1897.000000	0.936435
1896.000000	0.941797
1895.000000	0.949226
1894.000000	0.940630
1893.000000	0.934939
1892.000000	0.927208
1891.000000	0.926197
1890.000000	0.936288
1889.000000	0.930918
1888.000000	0.932224
1887.000000	0.939663
1886.000000	0.933877
1885.000000	0.938394
1884.000000	0.931572
1883.000000	0.911825
1882.000000	0.917706
1881.000000	0.923516
1880.000000	0.922786
1879.000000	0.929461
1878.000000	0.927699
1877.000000	0.932128
1876.000000	0.928160
1875.000000	0.920665
1874.000000	0.925199
1873.000000	0.927504
1872.000000	0.924279
1871.000000	0.928309
1870.000000	0.925162
1869.000000	0.929254
1868.000000	0.933071
1867.000000	0.924733
1866.000000	0.924613
1865.000000	0.922344
1864.000000	0.925768
1863.000000	0.936770
1862.000000	0.935157
1861.000000	0.934638
1860.000000	0.936608
1859.000000	0.925383
1858.000000	0.919086
1857.000000	0.920198
1856.000000	0.921470
1855.000000	0.926577
1854.000000	0.934239
1853.000000	0.931719
1852.000000	0.932395
1851.000000	0.921079
1850.000000	0.920330
1849.000000	0.933454
1848.000000	0.923746
1847.000000	0.930131
1846.000000	0.933113
1845.000000	0.925184
1844.000000	0.931835
1843.000000	0.932604
1842.000000	0.930344
1841.000000	0.931679
1840.000000	0.918271
1839.000000	0.924807
1838.000000	0.924019
1837.000000	0.918309
1836.000000	0.931073
1835.000000	0.932761
1834.000000	0.926968
1833.000000	0.926414
1832.000000	0.921448
1831.000000	0.923227
1830.000000	0.930642
1829.000000	0.923053
1828.000000	0.927834
1827.000000	0.936217
1826.000000	0.928171
1825.000000	0.931703
1824.000000	0.928465
1823.000000	0.924500
1822.000000	0.925648
1821.000000	0.920519
1820.000000	0.928952
1819.000000	0.936329
1818.000000	0.933418
1817.000000	0.935738
1816.000000	0.933654
1815.000000	0.923748
1814.000000	0.927623
1813.000000	0.927142
1812.000000	0.926774
1811.000000	0.931812
1810.000000	0.928774
1809.000000	0.932975
1808.000000	0.934880
1807.000000	0.926397
1806.000000	0.930902
1805.000000	0.926696
1804.000000	0.925533
1803.000000	0.932631
1802.000000	0.932834
1801.000000	0.931931
1800.000000	0.938680
1799.000000	0.929525
1798.000000	0.928201
1797.000000	0.928604
1796.000000	0.925077
1795.000000	0.935754
1794.000000	0.931487
1793.000000	0.927753
1792.000000	0.936717
1791.000000	0.932626
1790.000000	0.928569
1789.000000	0.930621
1788.000000	0.924192
1787.000000	0.928488
1786.000000	0.933396
1785.000000	0.931817
1784.000000	0.940875
1783.000000	0.935856
1782.000000	0.932138
1781.000000	0.937100
1780.000000	0.933007
1779.000000	0.935422
1778.000000	0.937620
1777.000000	0.933780
1776.000000	0.940067
1775.000000	0.943007
1774.000000	0.934301
1773.000000	0.935571
1772.000000	0.929585
1771.000000	0.925005
1770.000000	0.934193
1769.000000	0.930254
1768.000000	0.930437
1767.000000	0.936737
1766.000000	0.935407
1765.000000	0.939053
1764.000000	0.932742
1763.000000	0.923207
1762.000000	0.929047
1761.000000	0.927422
1760.000000	0.932198
1759.000000	0.941455
1758.000000	0.942753
1757.000000	0.941298
1756.000000	0.940904
1755.000000	0.931436
1754.000000	0.931298
1753.000000	0.931019
1752.000000	0.929654
1751.000000	0.934961
1750.000000	0.930718
1749.000000	0.937314
1748.000000	0.943608
1747.000000	0.928849
1746.000000	0.935989
1745.000000	0.934839
1744.000000	0.930730
1743.000000	0.934714
1742.000000	0.937152
1741.000000	0.937913
1740.000000	0.937062
1739.000000	0.936966
1738.000000	0.939097
1737.000000	0.937035
1736.000000	0.925663
1735.000000	0.932344
1734.000000	0.932715
1733.000000	0.934883
1732.000000	0.941139
1731.000000	0.937169
1730.000000	0.933965
1729.000000	0.936184
1728.000000	0.929755
1727.000000	0.930342
1726.000000	0.935070
1725.000000	0.931731
1724.000000	0.939013
1723.000000	0.939811
1722.000000	0.939757
1721.000000	0.937900
1720.000000	0.926771
1719.000000	0.926280
1718.000000	0.930702
1717.000000	0.926772
1716.000000	0.930275
1715.000000	0.935578
1714.000000	0.932941
1713.000000	0.939885
1712.000000	0.931980
1711.000000	0.933182
1710.000000	0.935435
1709.000000	0.928025
1708.000000	0.931174
1707.000000	0.935368
1706.000000	0.937006
1705.000000	0.942881
1704.000000	0.937398
1703.000000	0.933711
1702.000000	0.935091
1701.000000	0.930393
1700.000000	0.932555
1699.000000	0.935539
1698.000000	0.934498
1697.000000	0.940642
1696.000000	0.936870
1695.000000	0.933393
1694.000000	0.939499
1693.000000	0.933427
1692.000000	0.933081
1691.000000	0.936010
1690.000000	0.932927
1689.000000	0.937509
1688.000000	0.937954
1687.000000	0.939638
1686.000000	0.941879
1685.000000	0.938256
1684.000000	0.936034
1683.000000	0.935055
1682.000000	0.932434
1681.000000	0.933490
1680.000000	0.934426
1679.000000	0.939089
1678.000000	0.943059
1677.000000	0.936199
1676.000000	0.934191
1675.000000	0.935623
1674.000000	0.931616
1673.000000	0.934421
1672.000000	0.937941
1671.000000	0.938070
1670.000000	0.942760
1669.000000	0.941986
1668.000000	0.936310
1667.000000	0.934793
1666.000000	0.934913
1665.000000	0.933412
1664.000000	0.933230
1663.000000	0.934561
1662.000000	0.939454
1661.000000	0.941170
1660.000000	0.940288
1659.000000	0.939802
1658.000000	0.937347
1657.000000	0.933328
1656.000000	0.934913
1655.000000	0.934991
1654.000000	0.933417
1653.000000	0.935875
1652.000000	0.935834
1651.000000	0.936789
1650.000000	0.938678
1649.000000	0.937052
1648.000000	0.937810
1647.000000	0.936379
1646.000000	0.935620
1645.000000	0.938599
1644.000000	0.939353
1643.000000	0.941312
1642.000000	0.940221
1641.000000	0.938383
1640.000000	0.940919
1639.000000	0.939276
1638.000000	0.935977
1637.000000	0.937445
1636.000000	0.938174
1635.000000	0.939384
1634.000000	0.940549
1633.000000	0.939145
1632.000000	0.939708
1631.000000	0.938040
1630.000000	0.933879
1629.000000	0.936683
1628.000000	0.938014
1627.000000	0.938039
1626.000000	0.941150
1625.000000	0.939007
1624.000000	0.940830
1623.000000	0.939807
1622.000000	0.936511
1621.000000	0.939862
1620.000000	0.939614
1619.000000	0.938309
1618.000000	0.941562
1617.000000	0.940072
1616.000000	0.943729
1615.000000	0.943577
1614.000000	0.943365
1613.000000	0.944550
1612.000000	0.938989
1611.000000	0.937416
1610.000000	0.940502
1609.000000	0.937785
1608.000000	0.941991
1607.000000	0.943082
1606.000000	0.940445
1605.000000	0.943153
1604.000000	0.943774
1603.000000	0.941576
1602.000000	0.942209
1601.000000	0.937324
1600.000000	0.940104
1599.000000	0.940775
1598.000000	0.938986
1597.000000	0.943949
1596.000000	0.943946
1595.000000	0.943749
1594.000000	0.945141
1593.000000	0.940639
1592.000000	0.940862
1591.000000	0.944513
1590.000000	0.939556
1589.000000	0.942862
1588.000000	0.943057
1587.000000	0.942495
1586.000000	0.948339
1585.000000	0.940543
1584.000000	0.941015
1583.000000	0.942031
1582.000000	0.936183
1581.000000	0.940535
1580.000000	0.942578
1579.000000	0.941856
1578.000000	0.946026
1577.000000	0.945363
1576.000000	0.941760
1575.000000	0.941667
1574.000000	0.938561
1573.000000	0.940376
1572.000000	0.941959
1571.000000	0.939425
1570.000000	0.946133
1569.000000	0.944988
1568.000000	0.944439
1567.000000	0.947784
1566.000000	0.943485
1565.000000	0.940513
1564.000000	0.943088
1563.000000	0.939116
1562.000000	0.944135
1561.000000	0.945042
1560.000000	0.944171
1559.000000	0.946782
1558.000000	0.943943
1557.000000	0.941647
1556.000000	0.943291
1555.000000	0.941405
1554.000000	0.942884
1553.000000	0.942030
1552.000000	0.943773
1551.000000	0.948004
1550.000000	0.945809
1549.000000	0.943446
1548.000000	0.946610
1547.000000	0.940785
1546.000000	0.944135
1545.000000	0.943329
1544.000000	0.942316
1543.000000	0.945135
1542.000000	0.940840
1541.000000	0.941769
1540.000000	0.946027
1539.000000	0.941445
1538.000000	0.939252
1537.000000	0.943884
1536.000000	0.937372
1535.000000	0.939891
1534.000000	0.940702
1533.000000	0.942457
1532.000000	0.945199
1531.000000	0.943919
1530.000000	0.946017
1529.000000	0.945904
1528.000000	0.940139
1527.000000	0.943421
1526.000000	0.942811
1525.000000	0.940024
1524.000000	0.944001
1523.000000	0.943786
1522.000000	0.947987
1521.000000	0.947096
1520.000000	0.944642
1519.000000	0.944721
1518.000000	0.941030
1517.000000	0.939038
1516.000000	0.945401
1515.000000	0.943722
1514.000000	0.944553
1513.000000	0.946315
1512.000000	0.941969
1511.000000	0.943861
1510.000000	0.943850
1509.000000	0.942455
1508.000000	0.941151
1507.000000	0.941305
1506.000000	0.943369
1505.000000	0.945088
1504.000000	0.942660
1503.000000	0.946094
1502.000000	0.946367
1501.000000	0.944768
1500.000000	0.942585
1499.000000	0.938617
1498.000000	0.941872
1497.000000	0.941629
1496.000000	0.939660
1495.000000	0.942866
1494.000000	0.944182
1493.000000	0.941282
1492.000000	0.945785
1491.000000	0.943516
1490.000000	0.943843
1489.000000	0.944821
1488.000000	0.940682
1487.000000	0.944412
1486.000000	0.945660
1485.000000	0.944530
1484.000000	0.949355
1483.000000	0.945268
1482.000000	0.946150
1481.000000	0.944431
1480.000000	0.941279
1479.000000	0.943586
1478.000000	0.944113
1477.000000	0.940737
1476.000000	0.945217
1475.000000	0.946007
1474.000000	0.944271
1473.000000	0.944254
1472.000000	0.943590
1471.000000	0.945836
1470.000000	0.944718
1469.000000	0.942166
1468.000000	0.945332
1467.000000	0.942950
1466.000000	0.941970
1465.000000	0.945450
1464.000000	0.944656
1463.000000	0.944729
1462.000000	0.944523
1461.000000	0.940563
1460.000000	0.942750
1459.000000	0.941473
1458.000000	0.941215
1457.000000	0.944249
1456.000000	0.941829
1455.000000	0.944579
1454.000000	0.945535
1453.000000	0.944291
1452.000000	0.943192
1451.000000	0.940789
1450.000000	0.940865
1449.000000	0.942389
1448.000000	0.941906
1447.000000	0.942954
1446.000000	0.943958
1445.000000	0.944446
1444.000000	0.943160
1443.000000	0.941480
1442.000000	0.941661
1441.000000	0.942671
1440.000000	0.941148
1439.000000	0.941800
1438.000000	0.942755
1437.000000	0.942127
1436.000000	0.944369
1435.000000	0.944183
1434.000000	0.942632
1433.000000	0.942503
1432.000000	0.940534
1431.000000	0.940284
1430.000000	0.941910
1429.000000	0.940800
1428.000000	0.942300
1427.000000	0.942389
1426.000000	0.942215
1425.000000	0.944797
1424.000000	0.942633
1423.000000	0.940726
1422.000000	0.939815
1421.000000	0.936997
1420.000000	0.938229
1419.000000	0.938021
1418.000000	0.938500
1417.000000	0.940749
1416.000000	0.939473
1415.000000	0.939942
1414.000000	0.940630
1413.000000	0.938326
1412.000000	0.938974
1411.000000	0.939032
1410.000000	0.938983
1409.000000	0.940483
1408.000000	0.939976
1407.000000	0.942049
1406.000000	0.943326
1405.000000	0.941702
1404.000000	0.940407
1403.000000	0.938608
1402.000000	0.937940
1401.000000	0.939222
1400.000000	0.938784
1399.000000	0.938873
1398.000000	0.939639
1397.000000	0.939184
1396.000000	0.940068
1395.000000	0.940030
1394.000000	0.938530
1393.000000	0.938702
1392.000000	0.938222
1391.000000	0.938140
1390.000000	0.938622
1389.000000	0.938163
1388.000000	0.939887
1387.000000	0.941945
1386.000000	0.939039
1385.000000	0.938753
1384.000000	0.939079
1383.000000	0.938205
1382.000000	0.936887
1381.000000	0.935482
1380.000000	0.936851
1379.000000	0.939101
1378.000000	0.938019
1377.000000	0.940065
1376.000000	0.941002
1375.000000	0.939078
1374.000000	0.939563
1373.000000	0.937887
1372.000000	0.937044
1371.000000	0.937491
1370.000000	0.935739
1369.000000	0.938927
1368.000000	0.938734
1367.000000	0.937286
1366.000000	0.939736
1365.000000	0.938444
1364.000000	0.938866
1363.000000	0.937466
1362.000000	0.934958
1361.000000	0.937177
1360.000000	0.937562
1359.000000	0.935550
1358.000000	0.937197
1357.000000	0.939298
1356.000000	0.941214
1355.000000	0.940567
1354.000000	0.936853
1353.000000	0.936836
1352.000000	0.936473
1351.000000	0.935135
1350.000000	0.936298
1349.000000	0.937289
1348.000000	0.938849
1347.000000	0.939972
1346.000000	0.938621
1345.000000	0.939059
1344.000000	0.937737
1343.000000	0.935498
1342.000000	0.936179
1341.000000	0.934675
1340.000000	0.935284
1339.000000	0.938092
1338.000000	0.936148
1337.000000	0.938271
1336.000000	0.938545
1335.000000	0.935451
1334.000000	0.936897
1333.000000	0.936949
1332.000000	0.936277
1331.000000	0.937376
1330.000000	0.935947
1329.000000	0.936383
1328.000000	0.936467
1327.000000	0.935939
1326.000000	0.937720
1325.000000	0.936859
1324.000000	0.934650
1323.000000	0.937277
1322.000000	0.934819
1321.000000	0.935161
1320.000000	0.935719
1319.000000	0.934527
1318.000000	0.937428
1317.000000	0.937337
1316.000000	0.936818
1315.000000	0.938122
1314.000000	0.934138
1313.000000	0.933695
1312.000000	0.934383
1311.000000	0.933902
1310.000000	0.934934
1309.000000	0.936286
1308.000000	0.936264
1307.000000	0.937732
1306.000000	0.937326
1305.000000	0.936494
1304.000000	0.936746
1303.000000	0.934481
1302.000000	0.935905
1301.000000	0.937304
1300.000000	0.934069
1299.000000	0.937064
1298.000000	0.935796
1297.000000	0.935601
1296.000000	0.938062
1295.000000	0.934322
1294.000000	0.936000
1293.000000	0.934369
1292.000000	0.933394
1291.000000	0.934748
1290.000000	0.935569
1289.000000	0.934858
1288.000000	0.935836
1287.000000	0.935230
1286.000000	0.935328
1285.000000	0.934679
1284.000000	0.933660
1283.000000	0.935340
1282.000000	0.932539
1281.000000	0.931559
1280.000000	0.934758
1279.000000	0.936420
1278.000000	0.937319
1277.000000	0.939694
1276.000000	0.934607
1275.000000	0.937132
1274.000000	0.933601
1273.000000	0.931860
1272.000000	0.935703
1271.000000	0.932758
1270.000000	0.932941
1269.000000	0.935707
1268.000000	0.934249
1267.000000	0.937184
1266.000000	0.934817
1265.000000	0.933736
1264.000000	0.933531
1263.000000	0.933956
1262.000000	0.933379
1261.000000	0.933030
1260.000000	0.931632
1259.000000	0.933601
1258.000000	0.934676
1257.000000	0.934345
1256.000000	0.936083
1255.000000	0.934535
1254.000000	0.932917
1253.000000	0.934124
1252.000000	0.933085
1251.000000	0.932220
1250.000000	0.933012
1249.000000	0.931109
1248.000000	0.934371
1247.000000	0.934057
1246.000000	0.932391
1245.000000	0.932766
1244.000000	0.931406
1243.000000	0.931862
1242.000000	0.933038
1241.000000	0.931493
1240.000000	0.931788
1239.000000	0.932150
1238.000000	0.930675
1237.000000	0.933299
1236.000000	0.932900
1235.000000	0.933913
1234.000000	0.932255
1233.000000	0.932215
1232.000000	0.932229
1231.000000	0.931727
1230.000000	0.929457
1229.000000	0.932135
1228.000000	0.931839
1227.000000	0.933819
1226.000000	0.935090
1225.000000	0.933301
1224.000000	0.932934
1223.000000	0.932320
1222.000000	0.930117
1221.000000	0.931034
1220.000000	0.930136
1219.000000	0.929620
1218.000000	0.931784
1217.000000	0.931287
1216.000000	0.931847
1215.000000	0.932260
1214.000000	0.932303
1213.000000	0.932993
1212.000000	0.931427
1211.000000	0.929718
1210.000000	0.929991
1209.000000	0.929715
1208.000000	0.930636
1207.000000	0.932065
1206.000000	0.931345
1205.000000	0.933308
1204.000000	0.933363
1203.000000	0.932432
1202.000000	0.932229
1201.000000	0.930686
1200.000000	0.931134
1199.000000	0.931120
1198.000000	0.929503
1197.000000	0.931909
1196.000000	0.932777
1195.000000	0.931741
1194.000000	0.932229
1193.000000	0.930281
1192.000000	0.928970
1191.000000	0.929668
1190.000000	0.928497
1189.000000	0.930259
1188.000000	0.931032
1187.000000	0.929887
1186.000000	0.929831
1185.000000	0.931379
1184.000000	0.930204
1183.000000	0.930087
1182.000000	0.930727
1181.000000	0.930837
1180.000000	0.931590
1179.000000	0.930796
1178.000000	0.930080
1177.000000	0.930180
1176.000000	0.927893
1175.000000	0.929030
1174.000000	0.929625
1173.000000	0.928688
1172.000000	0.930275
1171.000000	0.931192
1170.000000	0.931168
1169.000000	0.930087
1168.000000	0.928169
1167.000000	0.928105
1166.000000	0.927989
1165.000000	0.927684
1164.000000	0.929198
1163.000000	0.927829
1162.000000	0.928489
1161.000000	0.931610
1160.000000	0.929992
1159.000000	0.929849
1158.000000	0.929474
1157.000000	0.927941
1156.000000	0.928334
1155.000000	0.927634
1154.000000	0.928115
1153.000000	0.928669
1152.000000	0.928360
1151.000000	0.929744
1150.000000	0.929362
1149.000000	0.929913
1148.000000	0.931176
1147.000000	0.929309
1146.000000	0.927509
1145.000000	0.928134
1144.000000	0.927066
1143.000000	0.926444
1142.000000	0.926918
1141.000000	0.927636
1140.000000	0.928645
1139.000000	0.928077
1138.000000	0.928729
1137.000000	0.930030
1136.000000	0.926854
1135.000000	0.925401
1134.000000	0.925347
1133.000000	0.924294
1132.000000	0.925516
1131.000000	0.926802
1130.000000	0.927320
1129.000000	0.930111
1128.000000	0.927465
1127.000000	0.927586
1126.000000	0.927269
1125.000000	0.924796
1124.000000	0.927263
1123.000000	0.924741
1122.000000	0.924711
1121.000000	0.927519
1120.000000	0.926251
1119.000000	0.926388
1118.000000	0.928142
1117.000000	0.928516
1116.000000	0.927906
1115.000000	0.926161
1114.000000	0.925138
1113.000000	0.925703
1112.000000	0.924534
1111.000000	0.924432
1110.000000	0.924800
1109.000000	0.924566
1108.000000	0.928945
1107.000000	0.926799
1106.000000	0.926464
1105.000000	0.928188
1104.000000	0.925271
1103.000000	0.923351
1102.000000	0.924308
1101.000000	0.922340
1100.000000	0.925974
1099.000000	0.926189
1098.000000	0.923354
1097.000000	0.926726
1096.000000	0.924431
1095.000000	0.924167
1094.000000	0.923714
1093.000000	0.922134
1092.000000	0.923789
1091.000000	0.922081
1090.000000	0.919707
1089.000000	0.922880
1088.000000	0.924206
1087.000000	0.920713
1086.000000	0.924090
1085.000000	0.923072
1084.000000	0.924785
1083.000000	0.924395
1082.000000	0.921543
1081.000000	0.924097
1080.000000	0.922718
1079.000000	0.918982
1078.000000	0.921829
1077.000000	0.921761
1076.000000	0.924024
1075.000000	0.924926
1074.000000	0.921442
1073.000000	0.922285
1072.000000	0.921531
1071.000000	0.918282
1070.000000	0.922846
1069.000000	0.919886
1068.000000	0.918767
1067.000000	0.920032
1066.000000	0.919947
1065.000000	0.921367
1064.000000	0.923112
1063.000000	0.921601
1062.000000	0.926204
1061.000000	0.923447
1060.000000	0.921675
1059.000000	0.922362
1058.000000	0.919114
1057.000000	0.917222
1056.000000	0.921009
1055.000000	0.919833
1054.000000	0.926164
1053.000000	0.925801
1052.000000	0.922780
1051.000000	0.925064
1050.000000	0.919669
1049.000000	0.919878
1048.000000	0.922827
1047.000000	0.916682
1046.000000	0.917198
1045.000000	0.921089
1044.000000	0.918652
1043.000000	0.921122
1042.000000	0.917320
1041.000000	0.919993
1040.000000	0.923440
1039.000000	0.918015
1038.000000	0.919725
1037.000000	0.918579
1036.000000	0.918279
1035.000000	0.920295
1034.000000	0.917522
1033.000000	0.917690
1032.000000	0.923826
1031.000000	0.916343
1030.000000	0.919879
1029.000000	0.921268
1028.000000	0.918824
1027.000000	0.919900
1026.000000	0.917683
1025.000000	0.915842
1024.000000	0.919776
1023.000000	0.917337
1022.000000	0.918534
1021.000000	0.921453
1020.000000	0.919520
1019.000000	0.921331
1018.000000	0.917781
1017.000000	0.915578
1016.000000	0.919480
1015.000000	0.914385
1014.000000	0.914955
1013.000000	0.916785
1012.000000	0.916307
1011.000000	0.919117
1010.000000	0.918113
1009.000000	0.916339
1008.000000	0.921191
1007.000000	0.915893
1006.000000	0.913567
1005.000000	0.917291
1004.000000	0.912691
1003.000000	0.917796
1002.000000	0.917217
1001.000000	0.913344
1000.000000	0.917722
999.000000	0.915680
998.000000	0.913906
997.000000	0.914338
996.000000	0.911835
995.000000	0.912708
994.000000	0.913604
993.000000	0.911735
992.000000	0.914953
991.000000	0.911381
990.000000	0.912984
989.000000	0.916438
988.000000	0.913946
987.000000	0.916927
986.000000	0.918003
985.000000	0.914419
984.000000	0.914773
983.000000	0.912988
982.000000	0.911494
981.000000	0.914423
980.000000	0.911747
979.000000	0.915707
978.000000	0.917637
977.000000	0.913997
976.000000	0.914674
975.000000	0.913695
974.000000	0.914290
973.000000	0.915295
972.000000	0.911273
971.000000	0.914736
970.000000	0.917323
969.000000	0.911683
968.000000	0.916190
967.000000	0.914338
966.000000	0.913034
965.000000	0.915868
964.000000	0.913401
963.000000	0.911529
962.000000	0.909827
961.000000	0.905811
960.000000	0.908477
959.000000	0.908334
958.000000	0.904621
957.000000	0.908496
956.000000	0.909283
955.000000	0.911437
954.000000	0.914725
953.000000	0.913096
952.000000	0.914607
951.000000	0.907867
950.000000	0.903133
949.000000	0.906957
948.000000	0.906276
947.000000	0.906173
946.000000	0.908599
945.000000	0.907296
944.000000	0.913517
943.000000	0.909903
942.000000	0.911959
941.000000	0.916335
940.000000	0.909331
939.000000	0.909705
938.000000	0.909166
937.000000	0.901655
936.000000	0.905502
935.000000	0.904906
934.000000	0.905857
933.000000	0.912382
932.000000	0.913455
931.000000	0.919764
930.000000	0.918259
929.000000	0.908391
928.000000	0.911022
927.000000	0.908492
926.000000	0.902401
925.000000	0.900515
924.000000	0.890942
923.000000	0.895154
922.000000	0.905737
921.000000	0.905189
920.000000	0.916234
919.000000	0.917807
918.000000	0.910118
917.000000	0.909600
916.000000	0.901994
915.000000	0.902947
914.000000	0.904982
913.000000	0.895886
912.000000	0.898162
911.000000	0.900813
910.000000	0.902785
909.000000	0.919801
908.000000	0.907047
907.000000	0.908557
906.000000	0.911484
905.000000	0.899042
904.000000	0.899105
903.000000	0.900600
902.000000	0.902851
901.000000	0.908715
900.000000	0.904091
899.000000	0.909937
898.000000	0.913910
897.000000	0.902767
896.000000	0.917229
895.000000	0.908752
894.000000	0.899382
893.000000	0.907392
892.000000	0.889563
891.000000	0.896423
890.000000	0.896716
889.000000	0.889538
888.000000	0.900371
887.000000	0.908050
886.000000	0.912569
885.000000	0.929550
884.000000	0.915373
883.000000	0.903982
882.000000	0.925278
881.000000	0.887356
880.000000	0.893274
879.000000	0.888020
878.000000	0.870119
877.000000	0.901731
876.000000	0.911560
875.000000	0.907686
874.000000	0.926753
873.000000	0.904917
872.000000	0.909250
871.000000	0.902462
870.000000	0.886386
869.000000	0.906332
868.000000	0.896174
867.000000	0.886437
866.000000	0.904432
865.000000	0.884193
864.000000	0.895123
863.000000	0.959246
862.000000	0.936789
861.000000	0.916776
860.000000	0.900310
859.000000	0.900936
858.000000	0.910206
857.000000	0.918407
856.000000	0.906024
855.000000	0.893569
854.000000	0.891258
853.000000	0.899744
852.000000	0.891484
851.000000	0.894938
850.000000	0.895582
849.000000	0.893238
848.000000	0.893646
847.000000	0.902571
846.000000	0.896202
845.000000	0.903305
844.000000	0.894096
843.000000	0.889746
842.000000	0.890966
841.000000	0.893516
840.000000	0.890328
839.000000	0.891775
838.000000	0.888449
837.000000	0.893109
836.000000	0.893602
835.000000	0.887956
834.000000	0.887407
833.000000	0.890856
832.000000	0.887097
831.000000	0.889196
830.000000	0.886544
829.000000	0.884719
828.000000	0.884021
827.000000	0.887521
826.000000	0.887115
825.000000	0.883829
824.000000	0.886458
823.000000	0.883779
822.000000	0.883749
821.000000	0.886158
820.000000	0.883221
819.000000	0.881520
818.000000	0.883014
817.000000	0.880027
816.000000	0.881759
815.000000	0.880189
814.000000	0.880733
813.000000	0.877617
812.000000	0.879746
811.000000	0.881029
810.000000	0.881065
809.000000	0.879900
808.000000	0.879052
807.000000	0.877025
806.000000	0.880132
805.000000	0.880291
804.000000	0.875108
803.000000	0.876833
802.000000	0.877222
801.000000	0.876440
800.000000	0.873929
799.000000	0.873879
798.000000	0.877433
797.000000	0.876109
796.000000	0.877763
795.000000	0.874288
794.000000	0.876116
793.000000	0.876634
792.000000	0.872121
791.000000	0.872720
790.000000	0.871351
789.000000	0.873877
788.000000	0.873070
787.000000	0.872212
786.000000	0.873579
785.000000	0.871010
784.000000	0.869654
783.000000	0.871429
782.000000	0.871088
781.000000	0.868943
780.000000	0.869383
779.000000	0.871310
778.000000	0.868183
777.000000	0.868162
776.000000	0.868206
775.000000	0.869763
774.000000	0.867063
773.000000	0.870940
772.000000	0.866840
771.000000	0.867212
770.000000	0.867991
769.000000	0.869253
768.000000	0.868659
767.000000	0.868088
766.000000	0.868576
765.000000	0.868432
764.000000	0.868009
763.000000	0.867576
762.000000	0.866612
761.000000	0.868097
760.000000	0.868276
759.000000	0.867313
758.000000	0.868381
757.000000	0.868373
756.000000	0.868201
755.000000	0.868185
754.000000	0.869752
753.000000	0.871332
752.000000	0.869931
751.000000	0.871120
750.000000	0.871098
749.000000	0.871548
748.000000	0.873665
747.000000	0.874140
746.000000	0.874523
745.000000	0.875304
744.000000	0.875973
743.000000	0.875845
742.000000	0.877732
741.000000	0.878495
740.000000	0.879150
739.000000	0.881463
738.000000	0.879248
737.000000	0.879379
736.000000	0.882057
735.000000	0.883206
734.000000	0.884136
733.000000	0.886713
732.000000	0.886366
731.000000	0.886630
730.000000	0.887051
729.000000	0.888536
728.000000	0.888115
727.000000	0.887986
726.000000	0.889372
725.000000	0.889431
724.000000	0.891869
723.000000	0.892210
722.000000	0.890995
721.000000	0.890538
720.000000	0.891514
719.000000	0.893203
718.000000	0.893848
717.000000	0.891774
716.000000	0.890750
715.000000	0.892177
714.000000	0.891200
713.000000	0.891592
712.000000	0.892100
711.000000	0.891379
710.000000	0.890890
709.000000	0.890253
708.000000	0.889136
707.000000	0.888969
706.000000	0.889508
705.000000	0.887463
704.000000	0.886719
703.000000	0.885075
702.000000	0.883905
701.000000	0.883684
700.000000	0.882177
699.000000	0.881350
698.000000	0.880672
697.000000	0.879584
696.000000	0.877469
695.000000	0.876957
694.000000	0.877202
693.000000	0.876029
692.000000	0.875740
691.000000	0.875002
690.000000	0.873694
689.000000	0.872504
688.000000	0.871578
687.000000	0.870789
686.000000	0.870482
685.000000	0.869403
684.000000	0.867833
683.000000	0.868073
682.000000	0.868040
681.000000	0.867606
680.000000	0.867033
679.000000	0.865709
678.000000	0.865196
677.000000	0.865343
676.000000	0.865236
675.000000	0.864141
674.000000	0.862394
673.000000	0.862006
672.000000	0.862495
671.000000	0.862131
670.000000	0.860868
669.000000	0.860501
668.000000	0.860248
667.000000	0.859222
666.000000	0.858936
665.000000	0.858786
664.000000	0.858460
663.000000	0.858169
662.000000	0.857539
661.000000	0.857640
660.000000	0.857974
659.000000	0.857861
658.000000	0.858261
657.000000	0.858804
656.000000	0.858450
655.000000	0.858097
654.000000	0.857841
653.000000	0.857444
652.000000	0.858107
651.000000	0.858291
650.000000	0.857602
649.000000	0.857487
648.000000	0.856792
647.000000	0.856504
646.000000	0.856434
645.000000	0.856594
644.000000	0.857000
643.000000	0.857016
642.000000	0.856782
641.000000	0.856354
640.000000	0.856309
639.000000	0.855849
638.000000	0.855519
637.000000	0.855770
636.000000	0.854651
635.000000	0.854208
634.000000	0.853522
633.000000	0.852108
632.000000	0.851170
631.000000	0.851352
630.000000	0.851059
629.000000	0.850978
628.000000	0.850742
627.000000	0.849559
626.000000	0.849139
625.000000	0.848545
624.000000	0.847996
623.000000	0.847730
622.000000	0.847483
621.000000	0.847304
620.000000	0.846411
619.000000	0.846003
618.000000	0.845555
617.000000	0.845215
616.000000	0.844839
615.000000	0.843688
614.000000	0.842861
613.000000	0.842396
612.000000	0.841776
611.000000	0.841136
610.000000	0.840436
609.000000	0.840377
608.000000	0.839393
607.000000	0.838790
606.000000	0.837943
605.000000	0.837029
604.000000	0.836102
603.000000	0.835169
602.000000	0.835183
601.000000	0.834436
600.000000	0.833682
599.000000	0.832655
598.000000	0.831244
597.000000	0.830426
596.000000	0.829494
595.000000	0.829429
594.000000	0.828101
593.000000	0.828403
592.000000	0.827144
591.000000	0.826889
590.000000	0.826795
589.000000	0.825953
588.000000	0.825693
587.000000	0.825533
586.000000	0.824959
585.000000	0.824746
584.000000	0.825486
583.000000	0.825966
582.000000	0.825485
581.000000	0.826342
580.000000	0.826840
579.000000	0.827637
578.000000	0.829623
577.000000	0.830884
576.000000	0.832372
575.000000	0.834710
574.000000	0.835306
573.000000	0.836560
572.000000	0.838363
571.000000	0.839121
570.000000	0.839954
569.000000	0.840457
568.000000	0.841479
567.000000	0.841291
566.000000	0.840486
565.000000	0.840259
564.000000	0.839007
563.000000	0.838513
562.000000	0.836400
561.000000	0.836173
560.000000	0.834540
559.000000	0.833614
558.000000	0.832010
557.000000	0.830875
556.000000	0.828823
555.000000	0.827398
554.000000	0.826336
553.000000	0.825302
552.000000	0.823508
551.000000	0.822971
550.000000	0.821693
549.000000	0.820065
548.000000	0.819836
547.000000	0.817973
546.000000	0.817506
545.000000	0.816028
544.000000	0.815148
543.000000	0.813818
542.000000	0.813050
541.000000	0.812513
540.000000	0.811525
539.000000	0.810377
538.000000	0.809900
537.000000	0.809132
536.000000	0.808612
535.000000	0.807838
534.000000	0.807569
533.000000	0.806759
532.000000	0.806352
531.000000	0.805869
530.000000	0.805034
529.000000	0.805191
528.000000	0.804243
527.000000	0.804081
526.000000	0.803214
525.000000	0.803075
524.000000	0.802373
523.000000	0.801849
522.000000	0.801967
521.000000	0.800668
520.000000	0.801094
519.000000	0.800237
518.000000	0.799684
517.000000	0.799134
516.000000	0.799242
515.000000	0.798675
514.000000	0.798879
513.000000	0.798513
512.000000	0.798653
511.000000	0.799123
510.000000	0.798943
509.000000	0.799838
508.000000	0.800115
507.000000	0.800794
506.000000	0.801276
505.000000	0.802013
504.000000	0.801317
503.000000	0.801875
502.000000	0.803174
501.000000	0.802769
500.000000	0.803078
499.000000	0.802935
498.000000	0.802408
497.000000	0.803109
496.000000	0.802594
495.000000	0.801936
494.000000	0.802738
493.000000	0.802867
492.000000	0.801881
491.000000	0.801857
490.000000	0.801228
489.000000	0.800622
488.000000	0.800250
487.000000	0.800825
486.000000	0.799238
485.000000	0.799187
484.000000	0.799138
483.000000	0.798874
482.000000	0.798477
481.000000	0.797617
480.000000	0.796631
479.000000	0.795754
478.000000	0.795669
477.000000	0.794226
476.000000	0.793355
475.000000	0.792944
474.000000	0.791964
473.000000	0.791435
472.000000	0.790798
471.000000	0.790404
470.000000	0.789403
469.000000	0.788633
468.000000	0.788349
467.000000	0.787122
466.000000	0.786572
465.000000	0.786169
464.000000	0.785670
463.000000	0.784699
462.000000	0.783785
461.000000	0.783674
460.000000	0.783392
459.000000	0.783022
458.000000	0.782661
457.000000	0.782496
456.000000	0.781455
455.000000	0.781682
454.000000	0.781495
453.000000	0.781188
452.000000	0.779514
451.000000	0.779603
450.000000	0.780057
449.000000	0.778952
448.000000	0.778596
447.000000	0.778707
446.000000	0.777931
445.000000	0.777380
444.000000	0.777151
443.000000	0.776134
442.000000	0.775176
441.000000	0.775834
440.000000	0.776273
439.000000	0.775181
438.000000	0.774773
437.000000	0.774169
436.000000	0.774090
435.000000	0.773122
434.000000	0.772041
433.000000	0.772591
432.000000	0.772544
431.000000	0.771289
430.000000	0.770125
429.000000	0.769728
428.000000	0.769157
427.000000	0.769264
426.000000	0.769154
425.000000	0.768523
424.000000	0.767216
423.000000	0.767231
422.000000	0.765945
421.000000	0.765337
420.000000	0.764823
419.000000	0.764059
418.000000	0.763735
417.000000	0.763350
416.000000	0.762110
415.000000	0.761951
414.000000	0.761739
413.000000	0.760365
412.000000	0.759989
411.000000	0.760625
410.000000	0.760865
409.000000	0.760452
408.000000	0.761537
407.000000	0.762995
406.000000	0.764061
405.000000	0.765995
404.000000	0.769021
403.000000	0.772681
402.000000	0.777464
401.000000	0.783165
400.000000	0.788174
399.000000	0.794299
398.000000	0.802390
397.000000	0.811662
396.000000	0.821687
395.000000	0.832831
394.000000	0.844199
393.000000	0.857481
392.000000	0.871716
391.000000	0.885277
390.000000	0.900396
389.000000	0.916104
388.000000	0.930575
387.000000	0.943558
386.000000	0.956992
385.000000	0.970318
384.000000	0.983477
383.000000	0.995880
382.000000	1.008109
381.000000	1.019131
380.000000	1.030300
379.000000	1.041540
378.000000	1.053718
377.000000	1.067448
376.000000	1.077797
375.000000	1.085180
374.000000	1.093502
373.000000	1.099222
372.000000	1.106432
371.000000	1.111862
370.000000	1.116266
369.000000	1.123552
368.000000	1.129050
367.000000	1.134801
366.000000	1.141937
365.000000	1.145988
364.000000	1.149090
363.000000	1.153260
362.000000	1.159125
361.000000	1.163512
360.000000	1.167873
359.000000	1.170770
358.000000	1.173756
357.000000	1.178001
356.000000	1.177850
355.000000	1.180158
354.000000	1.185462
353.000000	1.188765
352.000000	1.190488
351.000000	1.190388
350.000000	1.191716
349.000000	1.191089
348.000000	1.195535
347.000000	1.197170
346.000000	1.196328
345.000000	1.199821
344.000000	1.199603
343.000000	1.198479
342.000000	1.199313
341.000000	1.198070
340.000000	1.195273
339.000000	1.196993
338.000000	1.198044
337.000000	1.197840
336.000000	1.195985
335.000000	1.194722
334.000000	1.192999
333.000000	1.193653
332.000000	1.190738
331.000000	1.192227
330.000000	1.190026
329.000000	1.186842
328.000000	1.186192
327.000000	1.184051
326.000000	1.183518
325.000000	1.182683
324.000000	1.182254
323.000000	1.182174
322.000000	1.179610
321.000000	1.179705
320.000000	1.179108
319.000000	1.179489
318.000000	1.182312
317.000000	1.181756
316.000000	1.178968
315.000000	1.180289
314.000000	1.180522
313.000000	1.180774
312.000000	1.180093
311.000000	1.177097
310.000000	1.183940
309.000000	1.183697
308.000000	1.184098
307.000000	1.181606
306.000000	1.181810
305.000000	1.183932
304.000000	1.184944
303.000000	1.185678
302.000000	1.187188
301.000000	1.188952
300.000000	1.188523
299.000000	1.191812
298.000000	1.192542
297.000000	1.194384
296.000000	1.197467
295.000000	1.198045
294.000000	1.197282
293.000000	1.200075
292.000000	1.202586
291.000000	1.202509
290.000000	1.203854
289.000000	1.203526
288.000000	1.202768
287.000000	1.212341
286.000000	1.211536
285.000000	1.210720
284.000000	1.209728
283.000000	1.213030
282.000000	1.212360
281.000000	1.218065
280.000000	1.217737
279.000000	1.216502
278.000000	1.220294
277.000000	1.218362
276.000000	1.219851
275.000000	1.219198
274.000000	1.223044
273.000000	1.221380
272.000000	1.221751
271.000000	1.225741
270.000000	1.230047
269.000000	1.229522
268.000000	1.229224
267.000000	1.234487
266.000000	1.234360
265.000000	1.233029
264.000000	1.231067
263.000000	1.232608
262.000000	1.234766
261.000000	1.236905
260.000000	1.236867
259.000000	1.242962
258.000000	1.240514
257.000000	1.242590
256.000000	1.248038
255.000000	1.247940
254.000000	1.246639
253.000000	1.249449
252.000000	1.252036
251.000000	1.254979
250.000000	1.251629
249.000000	1.256419
248.000000	1.256872
247.000000	1.256422
246.000000	1.255649
245.000000	1.259232
244.000000	1.257137
243.000000	1.257534
242.000000	1.259207
241.000000	1.257029
240.000000	1.257680
239.000000	1.258235
238.000000	1.261616
237.000000	1.261064
236.000000	1.258414
235.000000	1.256309
234.000000	1.257632
233.000000	1.258553
232.000000	1.256057
231.000000	1.255582
230.000000	1.255330
229.000000	1.255518
228.000000	1.254219
227.000000	1.252251
226.000000	1.249995
225.000000	1.252280
224.000000	1.248993
223.000000	1.246131
222.000000	1.241786
221.000000	1.241872
220.000000	1.243974
219.000000	1.240683
218.000000	1.239329
217.000000	1.238393
216.000000	1.234914
215.000000	1.237346
214.000000	1.234596
213.000000	1.227730
212.000000	1.228920
211.000000	1.230498
210.000000	1.229540
209.000000	1.228487
208.000000	1.226269
207.000000	1.222872
206.000000	1.220429
205.000000	1.220214
204.000000	1.217906
203.000000	1.214016
202.000000	1.212075
201.000000	1.207192
200.000000	1.202032
199.000000	1.197579
198.000000	1.191115
197.000000	1.186890
196.000000	1.176890
195.000000	1.172844
194.000000	1.159704
193.000000	1.153172
192.000000	1.129392
191.000000	1.121774
190.000000	1.067445
189.000000	0.960781
188.000000	0.741088
187.000000	0.470262
186.000000	0.233270
185.000000	0.052919
184.000000	0.028129
183.000000	-0.027257
182.000000	-0.026371
181.000000	0.012360
180.000000	-0.026070
179.000000	-0.018210
178.000000	-0.007592
177.000000	-0.015053
176.000000	-0.007938
175.000000	0.013697
