PE UV       SUBTECH     SPECTRUM    ASCII       PEDS        4.00        
   -1
04.Sample.Raw.asc
24/04/18
16:15:29.00
24/04/18
16:15:29.00
Stefan Simis
JJC_GC-1 PML
175.000000
1
Lambda 1050
1050L1807051
PerkinElmer UV WinLab 6.4.0.973 / 2.02.06 Lambda 900 UV/VIS/NIR, Jan 28 2016 16:58:34

0
0
3350/servo 860.8/2
0
0
UV/VIS
1
1
1
RBeamAtt,SBeamAtt,150mm sphere / downward view, WB InGaAs Detector
0
0
0
0
Program
Program
3350/servo 860.8/2
3350/0.08 860.8/0.08
3350/0.08 860.8/0.08
0
1.00
 
 
 
0
 
860.8
319.2
860.8
Front
100
 
S:100 R:100
 
0
0
0
 
0
 
 
 
0
 
 
0
0
0
0
0
 
 
 
 
0
0


0
0
#HDR
-1
-1
#GR
nm
A
1.0
0.0
2500.000000
-1.000000
2326
8
10.000000
-0.026346
#DATA
2500.000000	10.000000
2499.000000	10.000000
2498.000000	10.000000
2497.000000	10.000000
2496.000000	10.000000
2495.000000	1.088542
2494.000000	10.000000
2493.000000	10.000000
2492.000000	1.168836
2491.000000	10.000000
2490.000000	10.000000
2489.000000	1.201744
2488.000000	10.000000
2487.000000	10.000000
2486.000000	1.174972
2485.000000	1.564545
2484.000000	10.000000
2483.000000	0.858619
2482.000000	10.000000
2481.000000	0.547876
2480.000000	0.785335
2479.000000	1.204591
2478.000000	0.973645
2477.000000	0.706279
2476.000000	10.000000
2475.000000	0.896108
2474.000000	10.000000
2473.000000	2.342583
2472.000000	1.907800
2471.000000	10.000000
2470.000000	10.000000
2469.000000	1.243357
2468.000000	10.000000
2467.000000	0.859391
2466.000000	1.245133
2465.000000	10.000000
2464.000000	1.303413
2463.000000	1.087059
2462.000000	1.086343
2461.000000	0.826533
2460.000000	1.694558
2459.000000	1.017791
2458.000000	1.151440
2457.000000	1.940144
2456.000000	1.188837
2455.000000	1.033949
2454.000000	2.892475
2453.000000	1.288451
2452.000000	2.062602
2451.000000	10.000000
2450.000000	1.257665
2449.000000	1.442390
2448.000000	1.507237
2447.000000	0.926559
2446.000000	1.354001
2445.000000	1.106326
2444.000000	0.971287
2443.000000	1.103387
2442.000000	0.935615
2441.000000	1.103324
2440.000000	10.000000
2439.000000	1.499175
2438.000000	1.359382
2437.000000	1.270049
2436.000000	1.210151
2435.000000	1.479844
2434.000000	1.172826
2433.000000	0.855253
2432.000000	1.057492
2431.000000	1.070943
2430.000000	0.973807
2429.000000	1.198887
2428.000000	1.090883
2427.000000	1.105838
2426.000000	1.078174
2425.000000	0.976936
2424.000000	1.074770
2423.000000	1.052348
2422.000000	1.042292
2421.000000	1.259256
2420.000000	1.269744
2419.000000	1.158601
2418.000000	1.249444
2417.000000	1.024841
2416.000000	0.972050
2415.000000	1.041397
2414.000000	0.943182
2413.000000	1.014308
2412.000000	1.038562
2411.000000	0.987401
2410.000000	0.970986
2409.000000	0.981270
2408.000000	0.989453
2407.000000	1.046028
2406.000000	0.995275
2405.000000	1.079779
2404.000000	1.141265
2403.000000	1.022125
2402.000000	1.092704
2401.000000	1.093382
2400.000000	0.985003
2399.000000	1.048715
2398.000000	1.042976
2397.000000	0.991736
2396.000000	1.097944
2395.000000	1.019979
2394.000000	0.944385
2393.000000	0.972875
2392.000000	0.964642
2391.000000	1.054903
2390.000000	1.092015
2389.000000	1.039643
2388.000000	1.155688
2387.000000	1.087871
2386.000000	0.995890
2385.000000	1.093449
2384.000000	1.045302
2383.000000	0.994975
2382.000000	1.124522
2381.000000	1.135200
2380.000000	1.108949
2379.000000	1.063458
2378.000000	0.989020
2377.000000	1.025815
2376.000000	0.948467
2375.000000	0.938522
2374.000000	1.057819
2373.000000	0.975072
2372.000000	0.987238
2371.000000	1.091639
2370.000000	1.033969
2369.000000	1.021173
2368.000000	1.056876
2367.000000	1.066790
2366.000000	1.200885
2365.000000	1.195179
2364.000000	1.009969
2363.000000	1.117587
2362.000000	1.109911
2361.000000	1.056691
2360.000000	1.059685
2359.000000	1.028134
2358.000000	0.984096
2357.000000	1.091295
2356.000000	1.059162
2355.000000	0.962022
2354.000000	0.975722
2353.000000	1.022578
2352.000000	1.128042
2351.000000	1.067894
2350.000000	1.137149
2349.000000	1.110481
2348.000000	1.032415
2347.000000	1.020838
2346.000000	1.081857
2345.000000	1.038338
2344.000000	0.945259
2343.000000	0.999104
2342.000000	0.933417
2341.000000	1.031332
2340.000000	1.014660
2339.000000	0.962148
2338.000000	0.934607
2337.000000	0.970950
2336.000000	0.994403
2335.000000	1.002374
2334.000000	0.963179
2333.000000	1.077428
2332.000000	1.077295
2331.000000	0.979577
2330.000000	1.024311
2329.000000	1.094689
2328.000000	0.965702
2327.000000	1.073552
2326.000000	1.083715
2325.000000	0.997707
2324.000000	1.008504
2323.000000	0.963582
2322.000000	0.950690
2321.000000	1.099981
2320.000000	0.977576
2319.000000	1.019942
2318.000000	1.038640
2317.000000	0.942648
2316.000000	1.003395
2315.000000	1.018119
2314.000000	1.010523
2313.000000	1.118354
2312.000000	1.064576
2311.000000	0.999579
2310.000000	1.057607
2309.000000	1.041849
2308.000000	1.036669
2307.000000	1.043448
2306.000000	0.941875
2305.000000	1.018730
2304.000000	1.046371
2303.000000	1.009838
2302.000000	1.025418
2301.000000	1.024631
2300.000000	0.981119
2299.000000	1.063306
2298.000000	0.996592
2297.000000	1.001522
2296.000000	1.048461
2295.000000	0.982507
2294.000000	1.045280
2293.000000	1.024601
2292.000000	0.979044
2291.000000	1.014087
2290.000000	0.999418
2289.000000	0.948386
2288.000000	1.052289
2287.000000	0.985702
2286.000000	0.935305
2285.000000	1.030182
2284.000000	0.941219
2283.000000	0.922236
2282.000000	1.024952
2281.000000	0.965479
2280.000000	1.000223
2279.000000	1.072455
2278.000000	1.033450
2277.000000	1.143435
2276.000000	1.044627
2275.000000	0.995549
2274.000000	1.040781
2273.000000	1.004970
2272.000000	0.973022
2271.000000	1.047462
2270.000000	0.972063
2269.000000	0.987926
2268.000000	1.054587
2267.000000	0.960695
2266.000000	0.973022
2265.000000	1.018210
2264.000000	1.014629
2263.000000	1.025743
2262.000000	0.994412
2261.000000	0.993837
2260.000000	1.042925
2259.000000	0.997033
2258.000000	1.028035
2257.000000	1.103372
2256.000000	0.979544
2255.000000	0.996877
2254.000000	0.997827
2253.000000	0.932378
2252.000000	0.976827
2251.000000	0.973787
2250.000000	0.964389
2249.000000	1.030413
2248.000000	0.969878
2247.000000	0.969664
2246.000000	1.022850
2245.000000	0.967825
2244.000000	1.006407
2243.000000	1.054987
2242.000000	0.989842
2241.000000	0.990413
2240.000000	1.034891
2239.000000	0.955458
2238.000000	0.991835
2237.000000	0.965229
2236.000000	0.969141
2235.000000	1.033146
2234.000000	0.968340
2233.000000	0.978443
2232.000000	0.961323
2231.000000	0.952568
2230.000000	0.964980
2229.000000	0.996995
2228.000000	0.947579
2227.000000	1.012953
2226.000000	1.025826
2225.000000	0.994916
2224.000000	1.019407
2223.000000	0.990153
2222.000000	0.991761
2221.000000	1.052862
2220.000000	0.994896
2219.000000	0.970012
2218.000000	0.987497
2217.000000	0.943017
2216.000000	0.981402
2215.000000	0.966873
2214.000000	0.900321
2213.000000	0.980238
2212.000000	0.950702
2211.000000	0.948743
2210.000000	0.983957
2209.000000	0.987571
2208.000000	0.987445
2207.000000	1.018437
2206.000000	1.021418
2205.000000	1.034349
2204.000000	1.012655
2203.000000	0.990835
2202.000000	1.002605
2201.000000	0.976052
2200.000000	0.977393
2199.000000	0.996431
2198.000000	0.970762
2197.000000	0.922233
2196.000000	0.965873
2195.000000	0.961522
2194.000000	0.960543
2193.000000	0.986790
2192.000000	0.962784
2191.000000	0.984837
2190.000000	0.981279
2189.000000	0.983741
2188.000000	1.035176
2187.000000	1.019500
2186.000000	0.997876
2185.000000	1.034811
2184.000000	0.972001
2183.000000	0.961077
2182.000000	0.968678
2181.000000	0.937982
2180.000000	0.955972
2179.000000	0.952410
2178.000000	0.948538
2177.000000	0.978863
2176.000000	0.964965
2175.000000	0.962737
2174.000000	0.981653
2173.000000	0.991532
2172.000000	0.986231
2171.000000	0.981065
2170.000000	0.943702
2169.000000	0.976448
2168.000000	1.004046
2167.000000	1.011280
2166.000000	1.027512
2165.000000	1.005580
2164.000000	0.972830
2163.000000	0.958412
2162.000000	0.954837
2161.000000	0.976416
2160.000000	0.991175
2159.000000	0.947427
2158.000000	0.967304
2157.000000	0.994478
2156.000000	0.961687
2155.000000	1.000619
2154.000000	1.013575
2153.000000	0.983068
2152.000000	1.021435
2151.000000	1.026024
2150.000000	1.028457
2149.000000	1.045672
2148.000000	1.025141
2147.000000	0.990350
2146.000000	0.961251
2145.000000	0.927878
2144.000000	0.946101
2143.000000	0.963599
2142.000000	0.937076
2141.000000	0.927895
2140.000000	0.923281
2139.000000	0.918402
2138.000000	0.951032
2137.000000	0.967365
2136.000000	0.972172
2135.000000	1.020709
2134.000000	1.020088
2133.000000	1.049912
2132.000000	1.069844
2131.000000	1.017269
2130.000000	1.014365
2129.000000	1.006901
2128.000000	0.975967
2127.000000	1.004492
2126.000000	0.993038
2125.000000	0.956475
2124.000000	0.957465
2123.000000	0.947907
2122.000000	0.951287
2121.000000	0.977150
2120.000000	0.971400
2119.000000	0.972414
2118.000000	0.980818
2117.000000	0.985803
2116.000000	0.993988
2115.000000	0.994639
2114.000000	0.975306
2113.000000	1.012647
2112.000000	1.023322
2111.000000	0.984808
2110.000000	1.015734
2109.000000	0.989526
2108.000000	0.945036
2107.000000	0.955952
2106.000000	0.943039
2105.000000	0.946337
2104.000000	0.969416
2103.000000	0.960240
2102.000000	0.958302
2101.000000	0.963768
2100.000000	0.952104
2099.000000	0.969688
2098.000000	0.972356
2097.000000	0.977925
2096.000000	1.002928
2095.000000	1.007226
2094.000000	0.967112
2093.000000	0.997753
2092.000000	0.992381
2091.000000	0.984467
2090.000000	0.981731
2089.000000	0.967529
2088.000000	0.986372
2087.000000	0.976995
2086.000000	0.960951
2085.000000	0.971490
2084.000000	0.974738
2083.000000	0.950468
2082.000000	0.981762
2081.000000	1.002471
2080.000000	0.986763
2079.000000	0.991277
2078.000000	1.008649
2077.000000	0.996046
2076.000000	1.010858
2075.000000	0.985252
2074.000000	0.985426
2073.000000	1.004475
2072.000000	0.974130
2071.000000	0.987160
2070.000000	0.979525
2069.000000	0.949496
2068.000000	0.969503
2067.000000	0.983789
2066.000000	0.936689
2065.000000	0.959551
2064.000000	0.969287
2063.000000	0.960196
2062.000000	0.990632
2061.000000	0.980905
2060.000000	0.980099
2059.000000	0.989925
2058.000000	0.975867
2057.000000	0.972022
2056.000000	0.989712
2055.000000	0.976569
2054.000000	0.986210
2053.000000	0.975430
2052.000000	0.955959
2051.000000	0.979715
2050.000000	0.954634
2049.000000	0.954637
2048.000000	0.975160
2047.000000	0.953981
2046.000000	0.965069
2045.000000	0.971138
2044.000000	0.970651
2043.000000	0.962031
2042.000000	0.986006
2041.000000	0.954265
2040.000000	0.965050
2039.000000	0.997303
2038.000000	0.975149
2037.000000	0.985807
2036.000000	0.994140
2035.000000	0.966514
2034.000000	0.990360
2033.000000	0.966416
2032.000000	0.964529
2031.000000	0.980090
2030.000000	0.971313
2029.000000	0.976299
2028.000000	0.986645
2027.000000	0.970463
2026.000000	0.967405
2025.000000	0.989425
2024.000000	0.969162
2023.000000	0.980957
2022.000000	0.994310
2021.000000	0.959395
2020.000000	0.980283
2019.000000	0.977740
2018.000000	0.988217
2017.000000	1.003201
2016.000000	0.977162
2015.000000	0.961699
2014.000000	0.980352
2013.000000	0.955989
2012.000000	0.964984
2011.000000	0.982331
2010.000000	0.960157
2009.000000	0.978844
2008.000000	0.987660
2007.000000	0.951075
2006.000000	0.970058
2005.000000	0.977892
2004.000000	0.963415
2003.000000	0.984727
2002.000000	0.978179
2001.000000	0.979633
2000.000000	0.981834
1999.000000	0.971510
1998.000000	0.980964
1997.000000	0.988799
1996.000000	0.973491
1995.000000	0.978632
1994.000000	0.984652
1993.000000	0.964606
1992.000000	0.975366
1991.000000	0.974449
1990.000000	0.964949
1989.000000	0.971835
1988.000000	0.974990
1987.000000	0.963732
1986.000000	0.973443
1985.000000	0.979934
1984.000000	0.973310
1983.000000	0.982110
1982.000000	0.986503
1981.000000	0.975343
1980.000000	0.987009
1979.000000	0.975069
1978.000000	0.975790
1977.000000	0.988962
1976.000000	0.978602
1975.000000	0.971628
1974.000000	0.977924
1973.000000	0.971691
1972.000000	0.978800
1971.000000	0.980734
1970.000000	0.974258
1969.000000	0.977557
1968.000000	0.963268
1967.000000	0.963769
1966.000000	0.974984
1965.000000	0.969003
1964.000000	0.972727
1963.000000	0.991049
1962.000000	0.993152
1961.000000	0.985197
1960.000000	0.990039
1959.000000	0.984494
1958.000000	0.991269
1957.000000	0.989513
1956.000000	0.976968
1955.000000	0.980997
1954.000000	0.979987
1953.000000	0.969415
1952.000000	0.984575
1951.000000	0.988686
1950.000000	0.981058
1949.000000	0.984494
1948.000000	0.975448
1947.000000	0.974078
1946.000000	0.987221
1945.000000	0.981191
1944.000000	0.973725
1943.000000	0.985414
1942.000000	0.976099
1941.000000	0.977614
1940.000000	0.983139
1939.000000	0.977333
1938.000000	0.988840
1937.000000	0.986719
1936.000000	0.978566
1935.000000	0.980094
1934.000000	0.987263
1933.000000	0.983001
1932.000000	0.991914
1931.000000	0.977159
1930.000000	0.971233
1929.000000	0.974763
1928.000000	0.970959
1927.000000	0.976912
1926.000000	0.988302
1925.000000	0.979514
1924.000000	0.980186
1923.000000	0.992056
1922.000000	0.988219
1921.000000	0.995241
1920.000000	1.005757
1919.000000	0.990850
1918.000000	0.982199
1917.000000	0.982569
1916.000000	0.974689
1915.000000	0.978257
1914.000000	0.980991
1913.000000	0.971858
1912.000000	0.982260
1911.000000	0.979730
1910.000000	0.972483
1909.000000	0.988573
1908.000000	0.977959
1907.000000	0.973327
1906.000000	0.988361
1905.000000	0.982121
1904.000000	0.983764
1903.000000	0.991285
1902.000000	0.989338
1901.000000	0.987479
1900.000000	0.991659
1899.000000	0.983562
1898.000000	0.978404
1897.000000	0.983470
1896.000000	0.978807
1895.000000	0.974276
1894.000000	0.970645
1893.000000	0.964405
1892.000000	0.972428
1891.000000	0.972838
1890.000000	0.958311
1889.000000	0.962247
1888.000000	0.964824
1887.000000	0.958096
1886.000000	0.966652
1885.000000	0.976441
1884.000000	0.977938
1883.000000	0.980439
1882.000000	0.979215
1881.000000	0.985811
1880.000000	0.989830
1879.000000	0.975966
1878.000000	0.983080
1877.000000	0.993608
1876.000000	0.977066
1875.000000	0.971972
1874.000000	0.978574
1873.000000	0.967201
1872.000000	0.969789
1871.000000	0.969655
1870.000000	0.969576
1869.000000	0.970621
1868.000000	0.966347
1867.000000	0.969619
1866.000000	0.975408
1865.000000	0.966350
1864.000000	0.966431
1863.000000	0.983736
1862.000000	0.976267
1861.000000	0.969838
1860.000000	0.982031
1859.000000	0.976180
1858.000000	0.972531
1857.000000	0.981066
1856.000000	0.974645
1855.000000	0.966601
1854.000000	0.965935
1853.000000	0.965779
1852.000000	0.972518
1851.000000	0.967725
1850.000000	0.961065
1849.000000	0.974950
1848.000000	0.975787
1847.000000	0.969698
1846.000000	0.972923
1845.000000	0.972722
1844.000000	0.966734
1843.000000	0.971378
1842.000000	0.974757
1841.000000	0.973348
1840.000000	0.977134
1839.000000	0.977461
1838.000000	0.970926
1837.000000	0.978244
1836.000000	0.974500
1835.000000	0.973413
1834.000000	0.980778
1833.000000	0.972468
1832.000000	0.973273
1831.000000	0.982201
1830.000000	0.970936
1829.000000	0.972581
1828.000000	0.975130
1827.000000	0.965082
1826.000000	0.965854
1825.000000	0.975055
1824.000000	0.966112
1823.000000	0.972290
1822.000000	0.974137
1821.000000	0.970748
1820.000000	0.976630
1819.000000	0.977962
1818.000000	0.970767
1817.000000	0.974837
1816.000000	0.971833
1815.000000	0.974788
1814.000000	0.972822
1813.000000	0.974283
1812.000000	0.967699
1811.000000	0.972352
1810.000000	0.974386
1809.000000	0.971071
1808.000000	0.969553
1807.000000	0.966104
1806.000000	0.966559
1805.000000	0.971499
1804.000000	0.968372
1803.000000	0.971362
1802.000000	0.969382
1801.000000	0.968685
1800.000000	0.968939
1799.000000	0.972818
1798.000000	0.970072
1797.000000	0.975477
1796.000000	0.973580
1795.000000	0.969666
1794.000000	0.973679
1793.000000	0.973420
1792.000000	0.974012
1791.000000	0.977823
1790.000000	0.973305
1789.000000	0.962785
1788.000000	0.972404
1787.000000	0.971069
1786.000000	0.966586
1785.000000	0.969111
1784.000000	0.970613
1783.000000	0.965925
1782.000000	0.968034
1781.000000	0.966038
1780.000000	0.969287
1779.000000	0.975478
1778.000000	0.969128
1777.000000	0.969401
1776.000000	0.980968
1775.000000	0.973293
1774.000000	0.971008
1773.000000	0.978846
1772.000000	0.971887
1771.000000	0.970490
1770.000000	0.973779
1769.000000	0.970857
1768.000000	0.968155
1767.000000	0.971287
1766.000000	0.966708
1765.000000	0.969129
1764.000000	0.973699
1763.000000	0.963631
1762.000000	0.967180
1761.000000	0.968941
1760.000000	0.968981
1759.000000	0.974721
1758.000000	0.973996
1757.000000	0.959416
1756.000000	0.969914
1755.000000	0.975828
1754.000000	0.971836
1753.000000	0.971418
1752.000000	0.973911
1751.000000	0.970255
1750.000000	0.970936
1749.000000	0.969896
1748.000000	0.964582
1747.000000	0.968350
1746.000000	0.966010
1745.000000	0.964801
1744.000000	0.967746
1743.000000	0.961417
1742.000000	0.962502
1741.000000	0.964253
1740.000000	0.964190
1739.000000	0.964445
1738.000000	0.968191
1737.000000	0.963963
1736.000000	0.962442
1735.000000	0.968115
1734.000000	0.962523
1733.000000	0.966301
1732.000000	0.969529
1731.000000	0.970322
1730.000000	0.968772
1729.000000	0.972367
1728.000000	0.969556
1727.000000	0.970335
1726.000000	0.970797
1725.000000	0.965516
1724.000000	0.966959
1723.000000	0.964492
1722.000000	0.963232
1721.000000	0.968144
1720.000000	0.967586
1719.000000	0.962430
1718.000000	0.964241
1717.000000	0.961473
1716.000000	0.962418
1715.000000	0.968384
1714.000000	0.961761
1713.000000	0.961191
1712.000000	0.967035
1711.000000	0.966053
1710.000000	0.969438
1709.000000	0.974112
1708.000000	0.972170
1707.000000	0.972596
1706.000000	0.970993
1705.000000	0.964831
1704.000000	0.964805
1703.000000	0.966576
1702.000000	0.961571
1701.000000	0.965002
1700.000000	0.965375
1699.000000	0.960666
1698.000000	0.964450
1697.000000	0.966839
1696.000000	0.958533
1695.000000	0.962278
1694.000000	0.965755
1693.000000	0.960693
1692.000000	0.964679
1691.000000	0.968168
1690.000000	0.963822
1689.000000	0.961486
1688.000000	0.963566
1687.000000	0.960644
1686.000000	0.961890
1685.000000	0.962149
1684.000000	0.964693
1683.000000	0.968431
1682.000000	0.966513
1681.000000	0.963007
1680.000000	0.964857
1679.000000	0.960902
1678.000000	0.960300
1677.000000	0.965194
1676.000000	0.960766
1675.000000	0.959946
1674.000000	0.964761
1673.000000	0.960148
1672.000000	0.960073
1671.000000	0.962413
1670.000000	0.959506
1669.000000	0.963058
1668.000000	0.965695
1667.000000	0.963661
1666.000000	0.966791
1665.000000	0.965724
1664.000000	0.962107
1663.000000	0.962514
1662.000000	0.962178
1661.000000	0.958930
1660.000000	0.958459
1659.000000	0.961252
1658.000000	0.957884
1657.000000	0.957179
1656.000000	0.961249
1655.000000	0.961036
1654.000000	0.961203
1653.000000	0.961266
1652.000000	0.959970
1651.000000	0.960550
1650.000000	0.957742
1649.000000	0.956243
1648.000000	0.958944
1647.000000	0.959772
1646.000000	0.960977
1645.000000	0.964097
1644.000000	0.961532
1643.000000	0.960993
1642.000000	0.961472
1641.000000	0.959133
1640.000000	0.961447
1639.000000	0.963265
1638.000000	0.958117
1637.000000	0.955910
1636.000000	0.958800
1635.000000	0.954529
1634.000000	0.953806
1633.000000	0.955642
1632.000000	0.954844
1631.000000	0.957146
1630.000000	0.958395
1629.000000	0.955241
1628.000000	0.954548
1627.000000	0.954883
1626.000000	0.954693
1625.000000	0.958383
1624.000000	0.958117
1623.000000	0.953210
1622.000000	0.956799
1621.000000	0.962227
1620.000000	0.959578
1619.000000	0.959330
1618.000000	0.957910
1617.000000	0.957359
1616.000000	0.960726
1615.000000	0.959450
1614.000000	0.959034
1613.000000	0.959484
1612.000000	0.954416
1611.000000	0.956248
1610.000000	0.958376
1609.000000	0.953827
1608.000000	0.955041
1607.000000	0.957047
1606.000000	0.956843
1605.000000	0.953847
1604.000000	0.954993
1603.000000	0.955477
1602.000000	0.956643
1601.000000	0.954933
1600.000000	0.952400
1599.000000	0.956846
1598.000000	0.958809
1597.000000	0.954079
1596.000000	0.958424
1595.000000	0.955184
1594.000000	0.954482
1593.000000	0.957778
1592.000000	0.959131
1591.000000	0.955418
1590.000000	0.954623
1589.000000	0.954666
1588.000000	0.956962
1587.000000	0.956192
1586.000000	0.952718
1585.000000	0.950064
1584.000000	0.952274
1583.000000	0.950191
1582.000000	0.952198
1581.000000	0.954742
1580.000000	0.950407
1579.000000	0.953887
1578.000000	0.955019
1577.000000	0.949699
1576.000000	0.954123
1575.000000	0.954001
1574.000000	0.952774
1573.000000	0.956738
1572.000000	0.956976
1571.000000	0.950618
1570.000000	0.953795
1569.000000	0.955633
1568.000000	0.951756
1567.000000	0.956320
1566.000000	0.955520
1565.000000	0.951268
1564.000000	0.954810
1563.000000	0.952496
1562.000000	0.951847
1561.000000	0.953223
1560.000000	0.951113
1559.000000	0.946175
1558.000000	0.952501
1557.000000	0.949773
1556.000000	0.947764
1555.000000	0.950081
1554.000000	0.949371
1553.000000	0.946744
1552.000000	0.953060
1551.000000	0.948664
1550.000000	0.948413
1549.000000	0.948568
1548.000000	0.946212
1547.000000	0.948846
1546.000000	0.951361
1545.000000	0.946795
1544.000000	0.950892
1543.000000	0.950084
1542.000000	0.952087
1541.000000	0.952032
1540.000000	0.950489
1539.000000	0.948601
1538.000000	0.951195
1537.000000	0.949321
1536.000000	0.946738
1535.000000	0.951693
1534.000000	0.946470
1533.000000	0.943678
1532.000000	0.946257
1531.000000	0.945333
1530.000000	0.945737
1529.000000	0.947092
1528.000000	0.947232
1527.000000	0.944550
1526.000000	0.946592
1525.000000	0.943811
1524.000000	0.946686
1523.000000	0.948965
1522.000000	0.942297
1521.000000	0.947091
1520.000000	0.947587
1519.000000	0.944336
1518.000000	0.944205
1517.000000	0.949364
1516.000000	0.943743
1515.000000	0.945805
1514.000000	0.947089
1513.000000	0.945380
1512.000000	0.947047
1511.000000	0.947189
1510.000000	0.941476
1509.000000	0.949875
1508.000000	0.948306
1507.000000	0.940429
1506.000000	0.945804
1505.000000	0.942021
1504.000000	0.942695
1503.000000	0.944681
1502.000000	0.942524
1501.000000	0.942130
1500.000000	0.944457
1499.000000	0.941375
1498.000000	0.940203
1497.000000	0.942900
1496.000000	0.939414
1495.000000	0.941368
1494.000000	0.944182
1493.000000	0.941251
1492.000000	0.940968
1491.000000	0.943380
1490.000000	0.944795
1489.000000	0.943610
1488.000000	0.940651
1487.000000	0.939167
1486.000000	0.943987
1485.000000	0.942303
1484.000000	0.938143
1483.000000	0.941542
1482.000000	0.940256
1481.000000	0.936661
1480.000000	0.940761
1479.000000	0.940492
1478.000000	0.937067
1477.000000	0.939858
1476.000000	0.938094
1475.000000	0.938966
1474.000000	0.940459
1473.000000	0.937428
1472.000000	0.937300
1471.000000	0.938165
1470.000000	0.937297
1469.000000	0.935568
1468.000000	0.938306
1467.000000	0.936705
1466.000000	0.939566
1465.000000	0.939277
1464.000000	0.936487
1463.000000	0.937631
1462.000000	0.938871
1461.000000	0.937433
1460.000000	0.939560
1459.000000	0.940173
1458.000000	0.937376
1457.000000	0.937633
1456.000000	0.937372
1455.000000	0.935121
1454.000000	0.936510
1453.000000	0.936238
1452.000000	0.934269
1451.000000	0.935180
1450.000000	0.935656
1449.000000	0.934695
1448.000000	0.934989
1447.000000	0.933300
1446.000000	0.932247
1445.000000	0.935627
1444.000000	0.934887
1443.000000	0.931860
1442.000000	0.933417
1441.000000	0.933527
1440.000000	0.933224
1439.000000	0.934127
1438.000000	0.933751
1437.000000	0.935047
1436.000000	0.935551
1435.000000	0.932923
1434.000000	0.934176
1433.000000	0.936769
1432.000000	0.934622
1431.000000	0.932285
1430.000000	0.932444
1429.000000	0.931376
1428.000000	0.930842
1427.000000	0.931397
1426.000000	0.930788
1425.000000	0.931435
1424.000000	0.930662
1423.000000	0.928937
1422.000000	0.929666
1421.000000	0.930141
1420.000000	0.928932
1419.000000	0.930303
1418.000000	0.929383
1417.000000	0.927686
1416.000000	0.929500
1415.000000	0.929098
1414.000000	0.928646
1413.000000	0.929918
1412.000000	0.929307
1411.000000	0.927669
1410.000000	0.929649
1409.000000	0.928830
1408.000000	0.927617
1407.000000	0.929054
1406.000000	0.926989
1405.000000	0.927230
1404.000000	0.929850
1403.000000	0.927906
1402.000000	0.926562
1401.000000	0.928247
1400.000000	0.928945
1399.000000	0.928357
1398.000000	0.926613
1397.000000	0.924725
1396.000000	0.926714
1395.000000	0.927041
1394.000000	0.924377
1393.000000	0.925587
1392.000000	0.925769
1391.000000	0.923100
1390.000000	0.922786
1389.000000	0.924019
1388.000000	0.922642
1387.000000	0.923248
1386.000000	0.923419
1385.000000	0.922274
1384.000000	0.924699
1383.000000	0.924300
1382.000000	0.922656
1381.000000	0.924592
1380.000000	0.923620
1379.000000	0.921822
1378.000000	0.922341
1377.000000	0.923763
1376.000000	0.925230
1375.000000	0.925013
1374.000000	0.921805
1373.000000	0.921092
1372.000000	0.923463
1371.000000	0.922038
1370.000000	0.918394
1369.000000	0.920421
1368.000000	0.919406
1367.000000	0.919412
1366.000000	0.919327
1365.000000	0.920502
1364.000000	0.920481
1363.000000	0.921221
1362.000000	0.918567
1361.000000	0.918807
1360.000000	0.920016
1359.000000	0.916519
1358.000000	0.917949
1357.000000	0.919844
1356.000000	0.918609
1355.000000	0.917516
1354.000000	0.917520
1353.000000	0.916594
1352.000000	0.918450
1351.000000	0.919049
1350.000000	0.917162
1349.000000	0.917369
1348.000000	0.918236
1347.000000	0.917567
1346.000000	0.918590
1345.000000	0.919266
1344.000000	0.915958
1343.000000	0.916137
1342.000000	0.916300
1341.000000	0.913771
1340.000000	0.914092
1339.000000	0.915121
1338.000000	0.913741
1337.000000	0.914241
1336.000000	0.914431
1335.000000	0.913860
1334.000000	0.913507
1333.000000	0.914370
1332.000000	0.910809
1331.000000	0.913064
1330.000000	0.913560
1329.000000	0.911856
1328.000000	0.914247
1327.000000	0.912645
1326.000000	0.911098
1325.000000	0.912138
1324.000000	0.912565
1323.000000	0.911321
1322.000000	0.911499
1321.000000	0.913250
1320.000000	0.911040
1319.000000	0.911671
1318.000000	0.912401
1317.000000	0.910828
1316.000000	0.911849
1315.000000	0.911771
1314.000000	0.910933
1313.000000	0.911433
1312.000000	0.910594
1311.000000	0.908513
1310.000000	0.910948
1309.000000	0.909542
1308.000000	0.907391
1307.000000	0.909025
1306.000000	0.907828
1305.000000	0.905738
1304.000000	0.907708
1303.000000	0.909171
1302.000000	0.906194
1301.000000	0.907040
1300.000000	0.908704
1299.000000	0.905489
1298.000000	0.906749
1297.000000	0.906582
1296.000000	0.904519
1295.000000	0.907437
1294.000000	0.906813
1293.000000	0.904175
1292.000000	0.904878
1291.000000	0.906557
1290.000000	0.906391
1289.000000	0.905138
1288.000000	0.906871
1287.000000	0.905592
1286.000000	0.906666
1285.000000	0.906132
1284.000000	0.905264
1283.000000	0.905818
1282.000000	0.905355
1281.000000	0.902517
1280.000000	0.902730
1279.000000	0.905148
1278.000000	0.902802
1277.000000	0.901610
1276.000000	0.902388
1275.000000	0.901598
1274.000000	0.902085
1273.000000	0.904656
1272.000000	0.902406
1271.000000	0.902385
1270.000000	0.902431
1269.000000	0.899885
1268.000000	0.899760
1267.000000	0.899575
1266.000000	0.898256
1265.000000	0.899072
1264.000000	0.899256
1263.000000	0.899943
1262.000000	0.898969
1261.000000	0.900584
1260.000000	0.899073
1259.000000	0.899778
1258.000000	0.900767
1257.000000	0.899555
1256.000000	0.900501
1255.000000	0.900940
1254.000000	0.898810
1253.000000	0.898327
1252.000000	0.900756
1251.000000	0.897735
1250.000000	0.897518
1249.000000	0.898073
1248.000000	0.896903
1247.000000	0.897192
1246.000000	0.896892
1245.000000	0.895986
1244.000000	0.895422
1243.000000	0.897201
1242.000000	0.894613
1241.000000	0.895785
1240.000000	0.897273
1239.000000	0.895700
1238.000000	0.895815
1237.000000	0.895097
1236.000000	0.894203
1235.000000	0.893385
1234.000000	0.894554
1233.000000	0.893157
1232.000000	0.893156
1231.000000	0.895076
1230.000000	0.893526
1229.000000	0.893660
1228.000000	0.894819
1227.000000	0.893697
1226.000000	0.891998
1225.000000	0.894092
1224.000000	0.892315
1223.000000	0.891841
1222.000000	0.892921
1221.000000	0.892875
1220.000000	0.892886
1219.000000	0.892913
1218.000000	0.892125
1217.000000	0.891654
1216.000000	0.891707
1215.000000	0.890997
1214.000000	0.891060
1213.000000	0.891117
1212.000000	0.889999
1211.000000	0.888608
1210.000000	0.889887
1209.000000	0.889301
1208.000000	0.888365
1207.000000	0.888394
1206.000000	0.887153
1205.000000	0.887347
1204.000000	0.887820
1203.000000	0.887455
1202.000000	0.887685
1201.000000	0.886595
1200.000000	0.885904
1199.000000	0.886139
1198.000000	0.885766
1197.000000	0.884792
1196.000000	0.885699
1195.000000	0.886842
1194.000000	0.886193
1193.000000	0.887005
1192.000000	0.886336
1191.000000	0.884738
1190.000000	0.885977
1189.000000	0.886592
1188.000000	0.884893
1187.000000	0.884448
1186.000000	0.885068
1185.000000	0.883785
1184.000000	0.884009
1183.000000	0.885342
1182.000000	0.884540
1181.000000	0.883883
1180.000000	0.884211
1179.000000	0.883395
1178.000000	0.883368
1177.000000	0.884494
1176.000000	0.883299
1175.000000	0.882059
1174.000000	0.882408
1173.000000	0.881403
1172.000000	0.881426
1171.000000	0.882190
1170.000000	0.880155
1169.000000	0.880188
1168.000000	0.881133
1167.000000	0.878865
1166.000000	0.878094
1165.000000	0.879055
1164.000000	0.879240
1163.000000	0.878752
1162.000000	0.878379
1161.000000	0.877422
1160.000000	0.877316
1159.000000	0.877578
1158.000000	0.877219
1157.000000	0.878646
1156.000000	0.879374
1155.000000	0.878090
1154.000000	0.878210
1153.000000	0.878737
1152.000000	0.878124
1151.000000	0.877265
1150.000000	0.877029
1149.000000	0.876846
1148.000000	0.877344
1147.000000	0.877456
1146.000000	0.876821
1145.000000	0.877146
1144.000000	0.877822
1143.000000	0.876297
1142.000000	0.876001
1141.000000	0.875333
1140.000000	0.874094
1139.000000	0.875803
1138.000000	0.875773
1137.000000	0.874816
1136.000000	0.875319
1135.000000	0.874408
1134.000000	0.872346
1133.000000	0.872785
1132.000000	0.873219
1131.000000	0.871413
1130.000000	0.871710
1129.000000	0.871994
1128.000000	0.871138
1127.000000	0.871348
1126.000000	0.870812
1125.000000	0.869261
1124.000000	0.870971
1123.000000	0.870308
1122.000000	0.869432
1121.000000	0.870398
1120.000000	0.870735
1119.000000	0.868771
1118.000000	0.869110
1117.000000	0.869751
1116.000000	0.868326
1115.000000	0.868892
1114.000000	0.869822
1113.000000	0.869150
1112.000000	0.869328
1111.000000	0.868696
1110.000000	0.867555
1109.000000	0.868768
1108.000000	0.869419
1107.000000	0.866149
1106.000000	0.869010
1105.000000	0.869919
1104.000000	0.867096
1103.000000	0.867792
1102.000000	0.867780
1101.000000	0.867111
1100.000000	0.867477
1099.000000	0.867014
1098.000000	0.866244
1097.000000	0.867415
1096.000000	0.867169
1095.000000	0.863970
1094.000000	0.865106
1093.000000	0.864648
1092.000000	0.863288
1091.000000	0.865122
1090.000000	0.865248
1089.000000	0.862912
1088.000000	0.862833
1087.000000	0.864626
1086.000000	0.863393
1085.000000	0.864300
1084.000000	0.864052
1083.000000	0.861198
1082.000000	0.862284
1081.000000	0.861809
1080.000000	0.861691
1079.000000	0.861230
1078.000000	0.862287
1077.000000	0.860872
1076.000000	0.860545
1075.000000	0.861235
1074.000000	0.860100
1073.000000	0.859821
1072.000000	0.861264
1071.000000	0.858218
1070.000000	0.861460
1069.000000	0.862886
1068.000000	0.859419
1067.000000	0.859606
1066.000000	0.860747
1065.000000	0.860196
1064.000000	0.861766
1063.000000	0.861937
1062.000000	0.859900
1061.000000	0.856506
1060.000000	0.861202
1059.000000	0.853964
1058.000000	0.856435
1057.000000	0.858932
1056.000000	0.854216
1055.000000	0.853524
1054.000000	0.855933
1053.000000	0.855211
1052.000000	0.857025
1051.000000	0.855439
1050.000000	0.856175
1049.000000	0.854052
1048.000000	0.858684
1047.000000	0.852846
1046.000000	0.852116
1045.000000	0.853959
1044.000000	0.854477
1043.000000	0.849982
1042.000000	0.854282
1041.000000	0.851912
1040.000000	0.853932
1039.000000	0.852386
1038.000000	0.849768
1037.000000	0.851175
1036.000000	0.852211
1035.000000	0.850100
1034.000000	0.850129
1033.000000	0.854276
1032.000000	0.854220
1031.000000	0.849737
1030.000000	0.853987
1029.000000	0.854474
1028.000000	0.852898
1027.000000	0.856106
1026.000000	0.853053
1025.000000	0.849576
1024.000000	0.850891
1023.000000	0.851240
1022.000000	0.846824
1021.000000	0.852380
1020.000000	0.852191
1019.000000	0.850345
1018.000000	0.852368
1017.000000	0.850899
1016.000000	0.846933
1015.000000	0.847208
1014.000000	0.846063
1013.000000	0.845588
1012.000000	0.847780
1011.000000	0.849375
1010.000000	0.844171
1009.000000	0.844164
1008.000000	0.847715
1007.000000	0.844266
1006.000000	0.844018
1005.000000	0.845236
1004.000000	0.843715
1003.000000	0.845744
1002.000000	0.845680
1001.000000	0.842276
1000.000000	0.845080
999.000000	0.844201
998.000000	0.841704
997.000000	0.841672
996.000000	0.840249
995.000000	0.841251
994.000000	0.842579
993.000000	0.844154
992.000000	0.840272
991.000000	0.839892
990.000000	0.842892
989.000000	0.841535
988.000000	0.841821
987.000000	0.844424
986.000000	0.841853
985.000000	0.839110
984.000000	0.841953
983.000000	0.842261
982.000000	0.840856
981.000000	0.842491
980.000000	0.841756
979.000000	0.840974
978.000000	0.844028
977.000000	0.842288
976.000000	0.841162
975.000000	0.840950
974.000000	0.842778
973.000000	0.841652
972.000000	0.842153
971.000000	0.840487
970.000000	0.838664
969.000000	0.839142
968.000000	0.840901
967.000000	0.838196
966.000000	0.839208
965.000000	0.838697
964.000000	0.836936
963.000000	0.835509
962.000000	0.834454
961.000000	0.833800
960.000000	0.833765
959.000000	0.832616
958.000000	0.830980
957.000000	0.830070
956.000000	0.832985
955.000000	0.832105
954.000000	0.832396
953.000000	0.828547
952.000000	0.827775
951.000000	0.833152
950.000000	0.830003
949.000000	0.826749
948.000000	0.832685
947.000000	0.833136
946.000000	0.831294
945.000000	0.834422
944.000000	0.833055
943.000000	0.829284
942.000000	0.830359
941.000000	0.827755
940.000000	0.826752
939.000000	0.832647
938.000000	0.837420
937.000000	0.832747
936.000000	0.831439
935.000000	0.834041
934.000000	0.832716
933.000000	0.837340
932.000000	0.839685
931.000000	0.834758
930.000000	0.832980
929.000000	0.829377
928.000000	0.826196
927.000000	0.831574
926.000000	0.834944
925.000000	0.830127
924.000000	0.833164
923.000000	0.838920
922.000000	0.829131
921.000000	0.827666
920.000000	0.830542
919.000000	0.826479
918.000000	0.831773
917.000000	0.831893
916.000000	0.818207
915.000000	0.819421
914.000000	0.827805
913.000000	0.818400
912.000000	0.817559
911.000000	0.825940
910.000000	0.821686
909.000000	0.821638
908.000000	0.825845
907.000000	0.815819
906.000000	0.814724
905.000000	0.819149
904.000000	0.816734
903.000000	0.814800
902.000000	0.815122
901.000000	0.815518
900.000000	0.818324
899.000000	0.824341
898.000000	0.824743
897.000000	0.819508
896.000000	0.817834
895.000000	0.825143
894.000000	0.824174
893.000000	0.829526
892.000000	0.821960
891.000000	0.807557
890.000000	0.825628
889.000000	0.827450
888.000000	0.814930
887.000000	0.822561
886.000000	0.825664
885.000000	0.821528
884.000000	0.829805
883.000000	0.831962
882.000000	0.828273
881.000000	0.835770
880.000000	0.843347
879.000000	0.815748
878.000000	0.840441
877.000000	0.844755
876.000000	0.807269
875.000000	0.815629
874.000000	0.824725
873.000000	0.827732
872.000000	0.830378
871.000000	0.838375
870.000000	0.820528
869.000000	0.837692
868.000000	0.852403
867.000000	0.824170
866.000000	0.822863
865.000000	0.847815
864.000000	0.819905
863.000000	0.801170
862.000000	0.825796
861.000000	0.819946
860.000000	0.807985
859.000000	0.815765
858.000000	0.825164
857.000000	0.830534
856.000000	0.822995
855.000000	0.813980
854.000000	0.824741
853.000000	0.814924
852.000000	0.813140
851.000000	0.815616
850.000000	0.815670
849.000000	0.812063
848.000000	0.815930
847.000000	0.817035
846.000000	0.816692
845.000000	0.813785
844.000000	0.806042
843.000000	0.807806
842.000000	0.809768
841.000000	0.808083
840.000000	0.806343
839.000000	0.808995
838.000000	0.806949
837.000000	0.808875
836.000000	0.807347
835.000000	0.803183
834.000000	0.805055
833.000000	0.807208
832.000000	0.805614
831.000000	0.800612
830.000000	0.804005
829.000000	0.801639
828.000000	0.802593
827.000000	0.803846
826.000000	0.803082
825.000000	0.801776
824.000000	0.806206
823.000000	0.801578
822.000000	0.799180
821.000000	0.798786
820.000000	0.798260
819.000000	0.800838
818.000000	0.802213
817.000000	0.798264
816.000000	0.798920
815.000000	0.799011
814.000000	0.800423
813.000000	0.797040
812.000000	0.795576
811.000000	0.795357
810.000000	0.797383
809.000000	0.795519
808.000000	0.795914
807.000000	0.795504
806.000000	0.795173
805.000000	0.795759
804.000000	0.795996
803.000000	0.795609
802.000000	0.793465
801.000000	0.790345
800.000000	0.791954
799.000000	0.794469
798.000000	0.793649
797.000000	0.792050
796.000000	0.790829
795.000000	0.789746
794.000000	0.792429
793.000000	0.792254
792.000000	0.790015
791.000000	0.789498
790.000000	0.788686
789.000000	0.791170
788.000000	0.789209
787.000000	0.788989
786.000000	0.789759
785.000000	0.787523
784.000000	0.787367
783.000000	0.788832
782.000000	0.787021
781.000000	0.785115
780.000000	0.785995
779.000000	0.786616
778.000000	0.786635
777.000000	0.784466
776.000000	0.783035
775.000000	0.782850
774.000000	0.783116
773.000000	0.783143
772.000000	0.784981
771.000000	0.782396
770.000000	0.784137
769.000000	0.782874
768.000000	0.781286
767.000000	0.781901
766.000000	0.781956
765.000000	0.779495
764.000000	0.780971
763.000000	0.777124
762.000000	0.778532
761.000000	0.779183
760.000000	0.778780
759.000000	0.778477
758.000000	0.778480
757.000000	0.776753
756.000000	0.777524
755.000000	0.776564
754.000000	0.774529
753.000000	0.775160
752.000000	0.774883
751.000000	0.776475
750.000000	0.774613
749.000000	0.772568
748.000000	0.772272
747.000000	0.773249
746.000000	0.772977
745.000000	0.774086
744.000000	0.773927
743.000000	0.771474
742.000000	0.770427
741.000000	0.771451
740.000000	0.770321
739.000000	0.770422
738.000000	0.769846
737.000000	0.769972
736.000000	0.770376
735.000000	0.768381
734.000000	0.768845
733.000000	0.767931
732.000000	0.768237
731.000000	0.767606
730.000000	0.766773
729.000000	0.766231
728.000000	0.764836
727.000000	0.764120
726.000000	0.766030
725.000000	0.764006
724.000000	0.764618
723.000000	0.763619
722.000000	0.763494
721.000000	0.763041
720.000000	0.762353
719.000000	0.762727
718.000000	0.760771
717.000000	0.759075
716.000000	0.759597
715.000000	0.759523
714.000000	0.759634
713.000000	0.759408
712.000000	0.758824
711.000000	0.759256
710.000000	0.758771
709.000000	0.758609
708.000000	0.757341
707.000000	0.756694
706.000000	0.756873
705.000000	0.756797
704.000000	0.755870
703.000000	0.755204
702.000000	0.755040
701.000000	0.754736
700.000000	0.753557
699.000000	0.752688
698.000000	0.753016
697.000000	0.752329
696.000000	0.751415
695.000000	0.750149
694.000000	0.750007
693.000000	0.749801
692.000000	0.748523
691.000000	0.748639
690.000000	0.749029
689.000000	0.748537
688.000000	0.747536
687.000000	0.747646
686.000000	0.747006
685.000000	0.746345
684.000000	0.746030
683.000000	0.745451
682.000000	0.745041
681.000000	0.743842
680.000000	0.743953
679.000000	0.743241
678.000000	0.742408
677.000000	0.742560
676.000000	0.742750
675.000000	0.742080
674.000000	0.741184
673.000000	0.741194
672.000000	0.740932
671.000000	0.740403
670.000000	0.739194
669.000000	0.738328
668.000000	0.738363
667.000000	0.737999
666.000000	0.737988
665.000000	0.737763
664.000000	0.736469
663.000000	0.735738
662.000000	0.735639
661.000000	0.734902
660.000000	0.734308
659.000000	0.734037
658.000000	0.733423
657.000000	0.732688
656.000000	0.732066
655.000000	0.731901
654.000000	0.731761
653.000000	0.731033
652.000000	0.729973
651.000000	0.729746
650.000000	0.729433
649.000000	0.728626
648.000000	0.728442
647.000000	0.728077
646.000000	0.727364
645.000000	0.726624
644.000000	0.726238
643.000000	0.725757
642.000000	0.725476
641.000000	0.724771
640.000000	0.724596
639.000000	0.724678
638.000000	0.723233
637.000000	0.722082
636.000000	0.721635
635.000000	0.721547
634.000000	0.721538
633.000000	0.720998
632.000000	0.720623
631.000000	0.720748
630.000000	0.719357
629.000000	0.719082
628.000000	0.718566
627.000000	0.718304
626.000000	0.717178
625.000000	0.716683
624.000000	0.715813
623.000000	0.714872
622.000000	0.715004
621.000000	0.714597
620.000000	0.713244
619.000000	0.713492
618.000000	0.713761
617.000000	0.712408
616.000000	0.711591
615.000000	0.711313
614.000000	0.711041
613.000000	0.710152
612.000000	0.709806
611.000000	0.709058
610.000000	0.708791
609.000000	0.708804
608.000000	0.708002
607.000000	0.707705
606.000000	0.706596
605.000000	0.706463
604.000000	0.706217
603.000000	0.705285
602.000000	0.705083
601.000000	0.704834
600.000000	0.704340
599.000000	0.704492
598.000000	0.704856
597.000000	0.704732
596.000000	0.704174
595.000000	0.704573
594.000000	0.705244
593.000000	0.705506
592.000000	0.705844
591.000000	0.707112
590.000000	0.707330
589.000000	0.707702
588.000000	0.708488
587.000000	0.710075
586.000000	0.710417
585.000000	0.711998
584.000000	0.713102
583.000000	0.714661
582.000000	0.715945
581.000000	0.717265
580.000000	0.717900
579.000000	0.718661
578.000000	0.719273
577.000000	0.720207
576.000000	0.720080
575.000000	0.720800
574.000000	0.720617
573.000000	0.720083
572.000000	0.720463
571.000000	0.720417
570.000000	0.719580
569.000000	0.719424
568.000000	0.718810
567.000000	0.717840
566.000000	0.717921
565.000000	0.717002
564.000000	0.717167
563.000000	0.716434
562.000000	0.715043
561.000000	0.714910
560.000000	0.714106
559.000000	0.713928
558.000000	0.712753
557.000000	0.711651
556.000000	0.711049
555.000000	0.710510
554.000000	0.709261
553.000000	0.708929
552.000000	0.707188
551.000000	0.706783
550.000000	0.706234
549.000000	0.705340
548.000000	0.704389
547.000000	0.703366
546.000000	0.702624
545.000000	0.701776
544.000000	0.701272
543.000000	0.700436
542.000000	0.699326
541.000000	0.698677
540.000000	0.697652
539.000000	0.697327
538.000000	0.696431
537.000000	0.696013
536.000000	0.695365
535.000000	0.694293
534.000000	0.693885
533.000000	0.693185
532.000000	0.692565
531.000000	0.692331
530.000000	0.691463
529.000000	0.691280
528.000000	0.689682
527.000000	0.689371
526.000000	0.688981
525.000000	0.688477
524.000000	0.687490
523.000000	0.686868
522.000000	0.686755
521.000000	0.685531
520.000000	0.684737
519.000000	0.683455
518.000000	0.682626
517.000000	0.681991
516.000000	0.680851
515.000000	0.680122
514.000000	0.678777
513.000000	0.678384
512.000000	0.677547
511.000000	0.676625
510.000000	0.675787
509.000000	0.674524
508.000000	0.674266
507.000000	0.673941
506.000000	0.673510
505.000000	0.673975
504.000000	0.672947
503.000000	0.673578
502.000000	0.674640
501.000000	0.675689
500.000000	0.676621
499.000000	0.677730
498.000000	0.678038
497.000000	0.680269
496.000000	0.683004
495.000000	0.684647
494.000000	0.687147
493.000000	0.689109
492.000000	0.690381
491.000000	0.692747
490.000000	0.694663
489.000000	0.696153
488.000000	0.697872
487.000000	0.699603
486.000000	0.699700
485.000000	0.700316
484.000000	0.701198
483.000000	0.702127
482.000000	0.702035
481.000000	0.702237
480.000000	0.701388
479.000000	0.700941
478.000000	0.701295
477.000000	0.700066
476.000000	0.699905
475.000000	0.698921
474.000000	0.697817
473.000000	0.696625
472.000000	0.696369
471.000000	0.695349
470.000000	0.694230
469.000000	0.693124
468.000000	0.691227
467.000000	0.689637
466.000000	0.689123
465.000000	0.688824
464.000000	0.687756
463.000000	0.686125
462.000000	0.685330
461.000000	0.683702
460.000000	0.683106
459.000000	0.683076
458.000000	0.681530
457.000000	0.681014
456.000000	0.680450
455.000000	0.680229
454.000000	0.678692
453.000000	0.678628
452.000000	0.677931
451.000000	0.677164
450.000000	0.676503
449.000000	0.675722
448.000000	0.675128
447.000000	0.674175
446.000000	0.673414
445.000000	0.672825
444.000000	0.672367
443.000000	0.671005
442.000000	0.669852
441.000000	0.669056
440.000000	0.667911
439.000000	0.666533
438.000000	0.665482
437.000000	0.664582
436.000000	0.663397
435.000000	0.661470
434.000000	0.660584
433.000000	0.660013
432.000000	0.658343
431.000000	0.657628
430.000000	0.656354
429.000000	0.655375
428.000000	0.654416
427.000000	0.652882
426.000000	0.652216
425.000000	0.651153
424.000000	0.649836
423.000000	0.648575
422.000000	0.647367
421.000000	0.646658
420.000000	0.645471
419.000000	0.643833
418.000000	0.642879
417.000000	0.641489
416.000000	0.640800
415.000000	0.640452
414.000000	0.639109
413.000000	0.638239
412.000000	0.637110
411.000000	0.637018
410.000000	0.637660
409.000000	0.637457
408.000000	0.637197
407.000000	0.638247
406.000000	0.639604
405.000000	0.641732
404.000000	0.645033
403.000000	0.649776
402.000000	0.654979
401.000000	0.660723
400.000000	0.667141
399.000000	0.675486
398.000000	0.684525
397.000000	0.694274
396.000000	0.705611
395.000000	0.718816
394.000000	0.733526
393.000000	0.748808
392.000000	0.764180
391.000000	0.781175
390.000000	0.798031
389.000000	0.814962
388.000000	0.831605
387.000000	0.848005
386.000000	0.864444
385.000000	0.879903
384.000000	0.895877
383.000000	0.910059
382.000000	0.923859
381.000000	0.937902
380.000000	0.950619
379.000000	0.961790
378.000000	0.977821
377.000000	0.993406
376.000000	1.003835
375.000000	1.013706
374.000000	1.023255
373.000000	1.032356
372.000000	1.040106
371.000000	1.047635
370.000000	1.055998
369.000000	1.063373
368.000000	1.071947
367.000000	1.081329
366.000000	1.088412
365.000000	1.096361
364.000000	1.103269
363.000000	1.109722
362.000000	1.117573
361.000000	1.123405
360.000000	1.127846
359.000000	1.132343
358.000000	1.138805
357.000000	1.145978
356.000000	1.152250
355.000000	1.156619
354.000000	1.161209
353.000000	1.164630
352.000000	1.168447
351.000000	1.171030
350.000000	1.174133
349.000000	1.177701
348.000000	1.183782
347.000000	1.185485
346.000000	1.187781
345.000000	1.191115
344.000000	1.190934
343.000000	1.194830
342.000000	1.195716
341.000000	1.192269
340.000000	1.194900
339.000000	1.196281
338.000000	1.195012
337.000000	1.196454
336.000000	1.197871
335.000000	1.196101
334.000000	1.196112
333.000000	1.194540
332.000000	1.193631
331.000000	1.194275
330.000000	1.191047
329.000000	1.191853
328.000000	1.185457
327.000000	1.187049
326.000000	1.186525
325.000000	1.187009
324.000000	1.183211
323.000000	1.183572
322.000000	1.180912
321.000000	1.179191
320.000000	1.178629
319.000000	1.183058
318.000000	1.182805
317.000000	1.183043
316.000000	1.183234
315.000000	1.181865
314.000000	1.181036
313.000000	1.180627
312.000000	1.181554
311.000000	1.176696
310.000000	1.175976
309.000000	1.176156
308.000000	1.179507
307.000000	1.179035
306.000000	1.180164
305.000000	1.176976
304.000000	1.176465
303.000000	1.178912
302.000000	1.176601
301.000000	1.177279
300.000000	1.181308
299.000000	1.182280
298.000000	1.180614
297.000000	1.181213
296.000000	1.180812
295.000000	1.183761
294.000000	1.182707
293.000000	1.185020
292.000000	1.184279
291.000000	1.183909
290.000000	1.182394
289.000000	1.187573
288.000000	1.189335
287.000000	1.187395
286.000000	1.186101
285.000000	1.186881
284.000000	1.189090
283.000000	1.187316
282.000000	1.188316
281.000000	1.185137
280.000000	1.188826
279.000000	1.189120
278.000000	1.184613
277.000000	1.186111
276.000000	1.188550
275.000000	1.188046
274.000000	1.188073
273.000000	1.192058
272.000000	1.193807
271.000000	1.186599
270.000000	1.188396
269.000000	1.187464
268.000000	1.186916
267.000000	1.189970
266.000000	1.189063
265.000000	1.188793
264.000000	1.187765
263.000000	1.185744
262.000000	1.187426
261.000000	1.189172
260.000000	1.188580
259.000000	1.190960
258.000000	1.188704
257.000000	1.189427
256.000000	1.187467
255.000000	1.191276
254.000000	1.188171
253.000000	1.187884
252.000000	1.189511
251.000000	1.188600
250.000000	1.187342
249.000000	1.185502
248.000000	1.189659
247.000000	1.184063
246.000000	1.188290
245.000000	1.185925
244.000000	1.185235
243.000000	1.184501
242.000000	1.185336
241.000000	1.183894
240.000000	1.183688
239.000000	1.182610
238.000000	1.180467
237.000000	1.179710
236.000000	1.177950
235.000000	1.177110
234.000000	1.173088
233.000000	1.174123
232.000000	1.174549
231.000000	1.172485
230.000000	1.168986
229.000000	1.165063
228.000000	1.165299
227.000000	1.166203
226.000000	1.160896
225.000000	1.161696
224.000000	1.159977
223.000000	1.157110
222.000000	1.153421
221.000000	1.152290
220.000000	1.147564
219.000000	1.147588
218.000000	1.146518
217.000000	1.142543
216.000000	1.141432
215.000000	1.138034
214.000000	1.136614
213.000000	1.134802
212.000000	1.135956
211.000000	1.128916
210.000000	1.128247
209.000000	1.126013
208.000000	1.119893
207.000000	1.118963
206.000000	1.116348
205.000000	1.111417
204.000000	1.107172
203.000000	1.097551
202.000000	1.096629
201.000000	1.088514
200.000000	1.082921
199.000000	1.073263
198.000000	1.070965
197.000000	1.066636
196.000000	1.064261
195.000000	1.053290
194.000000	1.044379
193.000000	1.025454
192.000000	1.019292
191.000000	0.999027
190.000000	0.946231
189.000000	0.880015
188.000000	0.720687
187.000000	0.481463
186.000000	0.276084
185.000000	0.068014
184.000000	-0.023583
183.000000	-0.022524
182.000000	0.015770
181.000000	0.032707
180.000000	0.041244
179.000000	0.007927
178.000000	-0.008692
177.000000	-0.026346
176.000000	-0.000054
175.000000	0.030816
